# Diamond Light Source
# Instrument: B18-CORE XAS Date: Wed, 27 Jul 2016 22:10:57 BST
# Ring energy:   3.0
# Ring current - start: 301.2
# Primary slits:  vertical gap=  2.4; horizontal gap= 52.0; vertical offset=  0.4; horizontal offset= -1.0
# Secondary slits:  vertical gap=  3.5; horizontal gap= 23.0; vertical offset=  5.3; horizontal offset= -14.5
# OH Mirror Coating: Pt
# White beam filter: 140um PyC
# Crystal cut: Si(311)
# PostDCM slits:  vertical gap= 18.0; horizontal gap= 28.0; vertical offset= -9.1; horizontal offset= -16.5
# Experimental slits:  vertical gap= 28.6; horizontal gap= 45.0; vertical offset=  5.7; horizontal offset= -17.5
# HR Mirror : out; Y: 37.8; Pitch:  0.3; Coating: Pt
# Mirror 2: Pitch:  2.3; Height: -6.4; Yaw: -1.6; Bend:  0.8;
# I0 Stanford sensitivity: 20 nA/V Offsets: 20 pA
# It Stanford sensitivity: 100 nA/V Offsets: 1 pA
# Iref Stanford sensitivity: 20 nA/V Offsets: 1 pA
#
# Ascii output file name: 'Andrea_Sn//ascii/262877_PtSn_OCO_Abu_3.dat'
# Nexus output file: '/dls/b18/data/2016/sp10306-9/Andrea_Sn//nexus/262877_PtSn_OCO_Abu_3.nxs'
# XML folder and files:
# /dls/b18/data/2016/sp10306-9/xml/Andrea_Sn/
# QEXAFS_Parameters
# Sample_Parameters
# Detector_Parameters
# Output_Parameters
# The contents of these files are also stored in the nexus file.
#
# Sample name: PtSn_OCO_Abu
# Sample description: default sample description
# Additional comments: default additional comments
# command: qexafs_energy 29000.0 30050.0 2094 263.53 qexafs_counterTimer01
#
#
# qexafs_energy	   time	       I0	       It	     Iref	  lnI0It	 lnItIref
     29000.24	0.12947	1878855.0	1495888.0	3111813.0	0.227943	-0.732486
     29000.73	0.15213	2224583.0	1770411.0	3682719.0	0.228358	-0.732440
     29001.21	0.18758	2784495.0	2216033.0	4608547.0	0.228348	-0.732194
     29001.69	0.078676	1158499.0	922258.0	1918037.0	0.228055	-0.732233
     29002.18	0.10008	1498038.0	1192669.0	2480470.0	0.227963	-0.732254
     29002.66	0.13544	2027050.0	1614095.0	3356519.0	0.227807	-0.732130
     29003.14	0.13086	1923070.0	1530851.0	3183970.0	0.228099	-0.732305
     29003.63	0.13164	1938776.0	1543576.0	3209816.0	0.227955	-0.732112
     29004.11	0.12321	1853461.0	1475409.0	3068851.0	0.228119	-0.732368
     29004.59	0.12187	1794005.0	1428599.0	2970948.0	0.227756	-0.732187
     29005.08	0.12299	1828014.0	1455617.0	3027614.0	0.227800	-0.732345
     29005.56	0.12745	1884930.0	1500839.0	3121361.0	0.227866	-0.732245
     29006.05	0.12730	1881019.0	1497556.0	3114207.0	0.227979	-0.732140
     29006.53	0.13169	1929367.0	1536562.0	3196054.0	0.227645	-0.732369
     29007.01	0.12157	1813050.0	1443583.0	3002658.0	0.227882	-0.732370
     29007.50	0.12057	1794151.0	1428710.0	2972490.0	0.227760	-0.732628
     29007.98	0.12563	1856907.0	1478582.0	3075348.0	0.227829	-0.732335
     29008.46	0.12730	1855046.0	1477098.0	3072249.0	0.227830	-0.732331
     29008.95	0.11383	1646680.0	1311621.0	2728004.0	0.227497	-0.732306
     29009.43	0.11377	1685998.0	1342823.0	2793347.0	0.227584	-0.732466
     29009.92	0.12580	1823488.0	1452713.0	3021314.0	0.227318	-0.732259
     29010.40	0.11947	1741464.0	1387482.0	2885831.0	0.227236	-0.732322
     29010.88	0.12932	1888665.0	1504156.0	3128618.0	0.227638	-0.732359
     29011.37	0.12080	1758221.0	1400692.0	2912929.0	0.227336	-0.732193
     29011.85	0.13416	1943326.0	1548196.0	3219825.0	0.227311	-0.732237
     29012.34	0.12404	1811341.0	1443435.0	3002108.0	0.227042	-0.732289
     29012.82	0.11037	1608467.0	1281448.0	2665201.0	0.227291	-0.732289
     29013.30	0.14166	2042172.0	1626931.0	3384169.0	0.227319	-0.732413
     29013.79	0.13127	1931937.0	1539238.0	3201579.0	0.227236	-0.732357
     29014.27	0.12875	1919237.0	1529225.0	3180931.0	0.227167	-0.732413
     29014.76	0.12824	1833489.0	1460819.0	3038425.0	0.227223	-0.732342
     29015.24	0.13240	1907830.0	1520493.0	3162285.0	0.226932	-0.732260
     29015.72	0.10925	1588289.0	1265600.0	2632729.0	0.227111	-0.732475
     29016.21	0.13069	1922622.0	1531931.0	3186342.0	0.227161	-0.732345
     29016.69	0.12185	1780498.0	1418681.0	2950695.0	0.227166	-0.732313
     29017.18	0.12954	1879922.0	1498272.0	3116325.0	0.226918	-0.732342
     29017.66	0.12143	1767364.0	1408514.0	2929762.0	0.226954	-0.732386
     29018.14	0.12889	1869928.0	1489619.0	3098848.0	0.227380	-0.732510
     29018.63	0.11901	1731370.0	1379462.0	2869389.0	0.227219	-0.732406
     29019.11	0.14144	2043557.0	1628752.0	3387832.0	0.226878	-0.732376
     29019.60	0.13599	2018032.0	1608076.0	3344882.0	0.227084	-0.732393
     29020.08	0.12574	1834571.0	1462009.0	3040355.0	0.226999	-0.732163
     29020.57	0.12818	1882674.0	1500165.0	3120348.0	0.227118	-0.732369
     29021.05	0.12333	1825805.0	1455454.0	3027364.0	0.226703	-0.732374
     29021.53	0.12387	1808242.0	1441095.0	2997171.0	0.226952	-0.732266
     29022.02	0.13295	1930148.0	1538398.0	3199567.0	0.226855	-0.732274
     29022.50	0.12511	1836368.0	1463790.0	3043779.0	0.226761	-0.732071
     29022.99	0.13532	1965167.0	1566322.0	3258439.0	0.226847	-0.732518
     29023.47	0.14476	2073680.0	1653183.0	3439015.0	0.226622	-0.732483
     29023.96	0.11054	1607113.0	1281652.0	2664830.0	0.226290	-0.731990
     29024.44	0.10454	1525035.0	1215837.0	2529204.0	0.226585	-0.732472
     29024.92	0.12346	1802816.0	1436989.0	2989595.0	0.226800	-0.732588
     29025.41	0.12255	1804349.0	1438607.0	2992828.0	0.226525	-0.732543
     29025.89	0.12151	1780505.0	1419429.0	2952874.0	0.226642	-0.732524
     29026.38	0.12931	1892599.0	1508655.0	3137686.0	0.226732	-0.732267
     29026.86	0.11533	1693329.0	1350052.0	2808337.0	0.226553	-0.732449
     29027.35	0.12279	1791072.0	1428187.0	2970642.0	0.226409	-0.732372
     29027.83	0.11073	1603026.0	1277938.0	2658171.0	0.226645	-0.732390
     29028.32	0.10968	1588824.0	1266918.0	2635361.0	0.226407	-0.732433
     29028.80	0.11814	1743523.0	1390664.0	2892265.0	0.226126	-0.732259
     29029.28	0.12022	1759370.0	1403123.0	2918884.0	0.226255	-0.732501
     29029.77	0.11839	1730312.0	1379897.0	2869655.0	0.226293	-0.732183
     29030.25	0.14919	2171113.0	1731593.0	3600889.0	0.226198	-0.732139
     29030.74	0.12963	1872219.0	1493169.0	3105527.0	0.226224	-0.732283
     29031.22	0.13414	1945905.0	1551650.0	3227700.0	0.226408	-0.732451
     29031.71	0.11067	1622723.0	1294038.0	2691263.0	0.226338	-0.732243
     29032.19	0.11647	1681006.0	1340776.0	2789011.0	0.226144	-0.732439
     29032.68	0.13559	1930554.0	1539887.0	3203134.0	0.226098	-0.732421
     29033.16	0.12080	1803756.0	1438730.0	2991092.0	0.226110	-0.731878
     29033.65	0.15070	2258292.0	1801161.0	3746432.0	0.226177	-0.732372
     29034.13	0.13144	1948157.0	1554027.0	3232888.0	0.226034	-0.732526
     29034.62	0.15443	2268657.0	1809637.0	3764164.0	0.226062	-0.732400
     29035.10	0.097256	1428127.0	1139068.0	2369307.0	0.226153	-0.732387
     29035.58	0.10689	1552709.0	1238724.0	2576863.0	0.225919	-0.732491
     29036.07	0.13644	1999167.0	1594816.0	3316688.0	0.225972	-0.732208
     29036.55	0.12317	1810054.0	1443963.0	3003475.0	0.225965	-0.732379
     29037.04	0.13470	1960661.0	1564549.0	3253788.0	0.225684	-0.732222
     29037.52	0.12736	1874703.0	1495701.0	3110186.0	0.225855	-0.732088
     29038.01	0.13982	2048890.0	1634758.0	3399697.0	0.225803	-0.732192
     29038.49	0.14783	2138316.0	1705648.0	3547814.0	0.226074	-0.732387
     29038.98	0.12316	1789451.0	1427761.0	2969787.0	0.225801	-0.732383
     29039.46	0.12773	1863387.0	1486703.0	3092393.0	0.225835	-0.732384
     29039.95	0.12788	1893885.0	1510995.0	3142269.0	0.225862	-0.732177
     29040.43	0.12634	1822722.0	1454705.0	3025654.0	0.225528	-0.732324
     29040.92	0.13409	1905887.0	1520657.0	3162686.0	0.225805	-0.732279
     29041.40	0.12015	1777798.0	1418583.0	2950067.0	0.225717	-0.732169
     29041.89	0.12316	1772330.0	1414542.0	2941572.0	0.225489	-0.732138
     29042.37	0.12396	1796428.0	1433609.0	2981788.0	0.225605	-0.732328
     29042.86	0.12957	1925364.0	1536487.0	3194812.0	0.225616	-0.732030
     29043.34	0.12648	1825182.0	1456811.0	3029753.0	0.225430	-0.732231
     29043.83	0.12698	1857576.0	1483007.0	3084104.0	0.225201	-0.732189
     29044.31	0.12468	1821204.0	1453949.0	3023229.0	0.225215	-0.732042
     29044.80	0.13227	1917861.0	1530488.0	3182846.0	0.225624	-0.732189
     29045.28	0.12087	1757561.0	1402859.0	2917605.0	0.225415	-0.732251
     29045.77	0.11015	1602500.0	1279092.0	2659630.0	0.225414	-0.732037
     29046.25	0.12933	1863433.0	1488001.0	3093537.0	0.224987	-0.731881
     29046.74	0.11559	1680704.0	1341389.0	2789580.0	0.225507	-0.732185
     29047.22	0.11513	1680743.0	1341747.0	2789928.0	0.225263	-0.732043
     29047.71	0.12892	1877885.0	1499053.0	3116848.0	0.225313	-0.731989
     29048.19	0.11240	1665047.0	1329338.0	2763821.0	0.225172	-0.731933
     29048.68	0.12711	1877698.0	1499090.0	3116948.0	0.225188	-0.731996
     29049.16	0.12156	1816908.0	1450546.0	3015802.0	0.225196	-0.731926
     29049.65	0.13122	1915414.0	1529164.0	3179514.0	0.225213	-0.732007
     29050.13	0.12629	1909665.0	1524255.0	3169505.0	0.225422	-0.732070
     29050.62	0.12296	1803419.0	1439939.0	2993521.0	0.225084	-0.731850
     29051.10	0.14309	2122614.0	1694985.0	3523626.0	0.224974	-0.731817
     29051.59	0.11650	1705033.0	1361593.0	2830676.0	0.224929	-0.731860
     29052.08	0.13541	1973891.0	1576472.0	3276883.0	0.224817	-0.731703
     29052.56	0.13172	1931800.0	1542884.0	3206929.0	0.224799	-0.731660
     29053.05	0.11515	1689286.0	1348896.0	2804329.0	0.225019	-0.731878
     29053.53	0.12539	1843680.0	1472086.0	3060489.0	0.225083	-0.731894
     29054.02	0.12744	1862160.0	1487165.0	3092021.0	0.224865	-0.731953
     29054.50	0.13119	1946892.0	1554704.0	3231038.0	0.224949	-0.731518
     29054.99	0.11585	1702095.0	1359334.0	2824878.0	0.224865	-0.731470
     29055.47	0.13216	1946547.0	1554910.0	3231944.0	0.224639	-0.731666
     29055.96	0.12471	1825533.0	1458309.0	3031202.0	0.224594	-0.731682
     29056.44	0.13623	2008353.0	1603661.0	3333673.0	0.225026	-0.731786
     29056.93	0.12030	1782356.0	1423528.0	2958324.0	0.224798	-0.731485
     29057.41	0.13906	2073417.0	1656007.0	3441289.0	0.224789	-0.731437
     29057.90	0.12244	1808850.0	1444526.0	3002634.0	0.224910	-0.731709
     29058.39	0.12453	1827896.0	1460217.0	3035643.0	0.224581	-0.731838
     29058.87	0.13721	2029079.0	1621070.0	3367846.0	0.224496	-0.731187
     29059.36	0.12393	1851827.0	1479080.0	3073881.0	0.224752	-0.731521
     29059.84	0.12525	1814632.0	1449433.0	3011604.0	0.224710	-0.731300
     29060.33	0.14301	2082443.0	1663700.0	3457777.0	0.224498	-0.731582
     29060.81	0.12000	1734564.0	1385945.0	2879944.0	0.224374	-0.731389
     29061.30	0.11137	1623067.0	1296589.0	2694593.0	0.224581	-0.731510
     29061.78	0.12311	1782010.0	1424095.0	2958725.0	0.224205	-0.731222
     29062.27	0.12675	1820869.0	1454822.0	3023465.0	0.224430	-0.731520
     29062.76	0.12297	1792170.0	1432060.0	2975303.0	0.224313	-0.731232
     29063.24	0.12428	1762568.0	1408063.0	2926556.0	0.224557	-0.731611
     29063.73	0.12837	1843422.0	1473334.0	3060841.0	0.224096	-0.731162
     29064.21	0.16574	2410738.0	1926657.0	4002062.0	0.224147	-0.731023
     29064.70	0.097905	1398738.0	1117689.0	2322312.0	0.224307	-0.731300
     29065.18	0.091305	1332879.0	1065084.0	2212442.0	0.224288	-0.731043
     29065.67	0.10318	1483011.0	1185359.0	2462867.0	0.224029	-0.731280
     29066.16	0.099984	1475896.0	1179529.0	2449940.0	0.224150	-0.730948
     29066.64	0.12906	1954274.0	1561633.0	3244557.0	0.224287	-0.731247
     29067.13	0.11445	1709577.0	1366313.0	2838187.0	0.224130	-0.731050
     29067.61	0.13168	1957687.0	1564563.0	3250083.0	0.224157	-0.731074
     29068.10	0.18505	2760054.0	2206284.0	4582210.0	0.223941	-0.730872
     29068.59	0.098331	1435291.0	1147299.0	2383047.0	0.223957	-0.730969
     29069.07	0.10084	1490174.0	1191098.0	2473493.0	0.224017	-0.730756
     29069.56	0.12327	1816331.0	1451973.0	3015239.0	0.223895	-0.730756
     29070.04	0.14048	2050287.0	1639294.0	3404392.0	0.223714	-0.730801
     29070.53	0.11788	1716164.0	1372373.0	2850174.0	0.223550	-0.730839
     29071.01	0.13360	1943847.0	1553843.0	3226621.0	0.223938	-0.730704
     29071.50	0.13790	2050929.0	1639291.0	3404026.0	0.224029	-0.730695
     29071.99	0.19686	2925044.0	2338832.0	4855863.0	0.223658	-0.730535
     29072.47	0.075260	1122236.0	897240.0	1863158.0	0.223755	-0.730705
     29072.96	0.094938	1417389.0	1133280.0	2353105.0	0.223700	-0.730620
     29073.44	0.13295	1974342.0	1578188.0	3276454.0	0.223958	-0.730484
     29073.93	0.13081	1961679.0	1567720.0	3255456.0	0.224178	-0.730710
     29074.42	0.13815	2050508.0	1639543.0	3403318.0	0.223670	-0.730333
     29074.90	0.13728	2075045.0	1659011.0	3442403.0	0.223761	-0.729948
     29075.39	0.13453	1998161.0	1597575.0	3316035.0	0.223740	-0.730283
     29075.87	0.16605	2489334.0	1989990.0	4130105.0	0.223886	-0.730173
     29076.36	0.11181	1673047.0	1337648.0	2776455.0	0.223734	-0.730262
     29076.85	0.10830	1645169.0	1315641.0	2730822.0	0.223519	-0.730279
     29077.33	0.12373	1878358.0	1502362.0	3117222.0	0.223359	-0.729904
     29077.82	0.13385	2037366.0	1628408.0	3379366.0	0.224055	-0.730085
     29078.31	0.12813	1923585.0	1538362.0	3192876.0	0.223472	-0.730204
     29078.79	0.12813	1940715.0	1551988.0	3219898.0	0.223520	-0.729813
     29079.28	0.12591	1901111.0	1519889.0	3153962.0	0.223801	-0.730022
     29079.76	0.14114	2144794.0	1715678.0	3558664.0	0.223235	-0.729577
     29080.25	0.11036	1681728.0	1345174.0	2790119.0	0.223298	-0.729561
     29080.74	0.12086	1822653.0	1457790.0	3023561.0	0.223372	-0.729514
     29081.22	0.13073	1985308.0	1587681.0	3292616.0	0.223500	-0.729408
     29081.71	0.12430	1893437.0	1513970.0	3140913.0	0.223658	-0.729778
     29082.20	0.12327	1882387.0	1505715.0	3123421.0	0.223273	-0.729661
     29082.68	0.12240	1859221.0	1487260.0	3084342.0	0.223222	-0.729403
     29083.17	0.12333	1839662.0	1471395.0	3051015.0	0.223371	-0.729263
     29083.65	0.12749	1938634.0	1550490.0	3215333.0	0.223413	-0.729360
     29084.14	0.11839	1772718.0	1418167.0	2940340.0	0.223149	-0.729160
     29084.63	0.11853	1801206.0	1440525.0	2986527.0	0.223449	-0.729104
     29085.11	0.12183	1827862.0	1462181.0	3032103.0	0.223218	-0.729327
     29085.60	0.12670	1922318.0	1537954.0	3188012.0	0.223079	-0.728945
     29086.09	0.11453	1714032.0	1371839.0	2842550.0	0.222696	-0.728549
     29086.57	0.13150	1988289.0	1590092.0	3296439.0	0.223483	-0.729051
     29087.06	0.11508	1735147.0	1388267.0	2877960.0	0.223036	-0.729026
     29087.55	0.12693	1898352.0	1519115.0	3148197.0	0.222858	-0.728702
     29088.03	0.12835	1960375.0	1568437.0	3250429.0	0.223056	-0.728707
     29088.52	0.12836	1943591.0	1555204.0	3223301.0	0.222931	-0.728799
     29089.01	0.13959	2088736.0	1671739.0	3463931.0	0.222695	-0.728540
     29089.49	0.13085	1953557.0	1563255.0	3239635.0	0.222882	-0.728690
     29089.98	0.12353	1842984.0	1474841.0	3056335.0	0.222836	-0.728666
     29090.47	0.12717	1915324.0	1532533.0	3174598.0	0.222965	-0.728259
     29090.95	0.11724	1748319.0	1399110.0	2898944.0	0.222818	-0.728510
     29091.44	0.13150	1934842.0	1548102.0	3207444.0	0.222996	-0.728445
     29091.93	0.10977	1637078.0	1310219.0	2714165.0	0.222719	-0.728290
     29092.41	0.13919	2100779.0	1681259.0	3481851.0	0.222765	-0.728021
     29092.90	0.12402	1860648.0	1489166.0	3084434.0	0.222709	-0.728152
     29093.39	0.12401	1858452.0	1487104.0	3079542.0	0.222913	-0.727950
     29093.87	0.12429	1845963.0	1477258.0	3058475.0	0.222813	-0.727729
     29094.36	0.13850	2095817.0	1677555.0	3472889.0	0.222606	-0.727649
     29094.85	0.12977	1924760.0	1540252.0	3188592.0	0.222855	-0.727633
     29095.33	0.13514	2010574.0	1609317.0	3330664.0	0.222610	-0.727362
     29095.82	0.11721	1756896.0	1406607.0	2910851.0	0.222368	-0.727265
     29096.31	0.13417	1978073.0	1583124.0	3276863.0	0.222723	-0.727486
     29096.79	0.13092	1950022.0	1560898.0	3229767.0	0.222579	-0.727149
     29097.28	0.12831	1914945.0	1533039.0	3171792.0	0.222437	-0.727045
     29097.77	0.12322	1819726.0	1456862.0	3014474.0	0.222401	-0.727141
     29098.25	0.13613	2039419.0	1632723.0	3376944.0	0.222416	-0.726722
     29098.74	0.12031	1808331.0	1448089.0	2995036.0	0.222160	-0.726711
     29099.23	0.12913	1921343.0	1538489.0	3182354.0	0.222224	-0.726820
     29099.71	0.11379	1716577.0	1374017.0	2842218.0	0.222594	-0.726846
     29100.20	0.13023	1942924.0	1555699.0	3217337.0	0.222269	-0.726629
     29100.69	0.12933	1917567.0	1535124.0	3173755.0	0.222446	-0.726304
     29101.17	0.11679	1733523.0	1388119.0	2869796.0	0.222206	-0.726291
     29101.66	0.13459	2016988.0	1614805.0	3338322.0	0.222391	-0.726254
     29102.15	0.098407	1451405.0	1162376.0	2402798.0	0.222066	-0.726168
     29102.64	0.13830	2073276.0	1659843.0	3429847.0	0.222407	-0.725793
     29103.12	0.095087	1420726.0	1137699.0	2351689.0	0.222160	-0.726126
     29103.61	0.11975	1771512.0	1418451.0	2931212.0	0.222268	-0.725851
     29104.10	0.11357	1678959.0	1344606.0	2777464.0	0.222073	-0.725437
     29104.58	0.11724	1749568.0	1400955.0	2893656.0	0.222215	-0.725367
     29105.07	0.12727	1852917.0	1483734.0	3065176.0	0.222199	-0.725543
     29105.56	0.11364	1686963.0	1350942.0	2790498.0	0.222128	-0.725418
     29106.04	0.13127	1909156.0	1528992.0	3156692.0	0.222053	-0.724916
     29106.53	0.12172	1809097.0	1448736.0	2991226.0	0.222136	-0.724992
     29107.02	0.11394	1678719.0	1344416.0	2775962.0	0.222071	-0.725038
     29107.51	0.12993	1908992.0	1529193.0	3156343.0	0.221835	-0.724674
     29107.99	0.13299	1969379.0	1577129.0	3254728.0	0.222112	-0.724503
     29108.48	0.12807	1885224.0	1509610.0	3115526.0	0.222195	-0.724547
     29108.97	0.13307	1960666.0	1570829.0	3240154.0	0.221681	-0.724017
     29109.46	0.13864	2020515.0	1618244.0	3338729.0	0.222011	-0.724249
     29109.94	0.11951	1774376.0	1421405.0	2931264.0	0.221803	-0.723788
     29110.43	0.13583	1973460.0	1580901.0	3260077.0	0.221793	-0.723756
     29110.92	0.12265	1782482.0	1428013.0	2943823.0	0.221723	-0.723425
     29111.40	0.13293	1935554.0	1550367.0	3195382.0	0.221902	-0.723215
     29111.89	0.11616	1723146.0	1380205.0	2844721.0	0.221920	-0.723233
     29112.38	0.13406	1983422.0	1588696.0	3273629.0	0.221910	-0.722986
     29112.87	0.13095	1918556.0	1536716.0	3166574.0	0.221925	-0.723003
     29113.35	0.13316	1957804.0	1568394.0	3230183.0	0.221771	-0.722487
     29113.84	0.13787	2037740.0	1631987.0	3360774.0	0.222043	-0.722373
     29114.33	0.13408	1919869.0	1537968.0	3166904.0	0.221795	-0.722292
     29114.82	0.13040	1948296.0	1560810.0	3213734.0	0.221750	-0.722229
     29115.30	0.13834	2032689.0	1628544.0	3351334.0	0.221673	-0.721672
     29115.79	0.13322	1944439.0	1557449.0	3204954.0	0.221924	-0.721649
     29116.28	0.13479	1991820.0	1595651.0	3282993.0	0.221767	-0.721474
     29116.77	0.12392	1804231.0	1445379.0	2973180.0	0.221763	-0.721261
     29117.25	0.14696	2137065.0	1712470.0	3521607.0	0.221497	-0.720981
     29117.74	0.12158	1795716.0	1438579.0	2958177.0	0.221748	-0.720917
     29118.23	0.11934	1742604.0	1396623.0	2871207.0	0.221323	-0.720675
     29118.72	0.11955	1763756.0	1413214.0	2903492.0	0.221579	-0.720048
     29119.20	0.12171	1797353.0	1440486.0	2960125.0	0.221334	-0.720251
     29119.69	0.11901	1762754.0	1412827.0	2901181.0	0.221285	-0.719525
     29120.18	0.12517	1835127.0	1470378.0	3019192.0	0.221594	-0.719470
     29120.67	0.12462	1824149.0	1461882.0	3000981.0	0.221389	-0.719215
     29121.15	0.13081	1932637.0	1548825.0	3178352.0	0.221389	-0.718866
     29121.64	0.11664	1738602.0	1393241.0	2858480.0	0.221449	-0.718657
     29122.13	0.12206	1796444.0	1439595.0	2952175.0	0.221447	-0.718180
     29122.62	0.12051	1796986.0	1440246.0	2953447.0	0.221297	-0.718159
     29123.10	0.11265	1655546.0	1326748.0	2719869.0	0.221400	-0.717853
     29123.59	0.11668	1722691.0	1380655.0	2830277.0	0.221330	-0.717817
     29124.08	0.12376	1796183.0	1439643.0	2949304.0	0.221269	-0.717174
     29124.57	0.12740	1882850.0	1509063.0	3090102.0	0.221298	-0.716715
     29125.06	0.11759	1724898.0	1382692.0	2831278.0	0.221136	-0.716696
     29125.54	0.12045	1777947.0	1425031.0	2917978.0	0.221266	-0.716697
     29126.03	0.12027	1740747.0	1395600.0	2855567.0	0.220990	-0.715946
     29126.52	0.13102	1956095.0	1567441.0	3206066.0	0.221506	-0.715600
     29127.01	0.12453	1834034.0	1469560.0	3006153.0	0.221555	-0.715698
     29127.49	0.13168	1938327.0	1553549.0	3175802.0	0.221283	-0.715018
     29127.98	0.12848	1891546.0	1516204.0	3098619.0	0.221185	-0.714747
     29128.47	0.13136	1957314.0	1568973.0	3204671.0	0.221152	-0.714188
     29128.96	0.12474	1845396.0	1479071.0	3020694.0	0.221280	-0.714072
     29129.45	0.13470	1993924.0	1598140.0	3262547.0	0.221264	-0.713668
     29129.93	0.12301	1820411.0	1459149.0	2976812.0	0.221209	-0.713000
     29130.42	0.11731	1732085.0	1388126.0	2831472.0	0.221371	-0.712842
     29130.91	0.12042	1795350.0	1439075.0	2933410.0	0.221199	-0.712165
     29131.40	0.12146	1801939.0	1444318.0	2943211.0	0.221226	-0.711864
     29131.89	0.13041	1932841.0	1549561.0	3156699.0	0.221019	-0.711555
     29132.37	0.12635	1866870.0	1496799.0	3047402.0	0.220934	-0.710961
     29132.86	0.11883	1744503.0	1398222.0	2846536.0	0.221268	-0.710901
     29133.35	0.13172	1996423.0	1600363.0	3255563.0	0.221127	-0.710135
     29133.84	0.13317	1970498.0	1579466.0	3212469.0	0.221199	-0.709953
     29134.33	0.12543	1867114.0	1496640.0	3041913.0	0.221171	-0.709264
     29134.81	0.12817	1891657.0	1516546.0	3081062.0	0.221018	-0.708839
     29135.30	0.12764	1871341.0	1500494.0	3046664.0	0.220861	-0.708253
     29135.79	0.13311	1960328.0	1570920.0	3188359.0	0.221450	-0.707845
     29136.28	0.12933	1941086.0	1555995.0	3156729.0	0.221132	-0.707421
     29136.77	0.12848	1912118.0	1532832.0	3108189.0	0.221095	-0.706923
     29137.25	0.13574	2004402.0	1606460.0	3255017.0	0.221313	-0.706164
     29137.74	0.12945	1894867.0	1519193.0	3077341.0	0.220969	-0.705887
     29138.23	0.12635	1853312.0	1485770.0	3007160.0	0.221041	-0.705063
     29138.72	0.11648	1709910.0	1370881.0	2773246.0	0.220987	-0.704565
     29139.21	0.12879	1867746.0	1496923.0	3026284.0	0.221321	-0.703924
     29139.70	0.12074	1773847.0	1422330.0	2873194.0	0.220854	-0.703128
     29140.18	0.13175	1948585.0	1562039.0	3154663.0	0.221111	-0.702890
     29140.67	0.11930	1763796.0	1413690.0	2853419.0	0.221265	-0.702315
     29141.16	0.12500	1865570.0	1495558.0	3016706.0	0.221067	-0.701666
     29141.65	0.12741	1902112.0	1524802.0	3073027.0	0.221100	-0.700799
     29142.14	0.10403	1511797.0	1211598.0	2440775.0	0.221359	-0.700375
     29142.63	0.12199	1792460.0	1436543.0	2892413.0	0.221349	-0.699852
     29143.11	0.11708	1740800.0	1395406.0	2806442.0	0.221159	-0.698732
     29143.60	0.12301	1794428.0	1438219.0	2891376.0	0.221281	-0.698327
     29144.09	0.10890	1560797.0	1251265.0	2512494.0	0.221042	-0.697121
     29144.58	0.12398	1814640.0	1454907.0	2919554.0	0.220945	-0.696489
     29145.07	0.12335	1807272.0	1448930.0	2904742.0	0.220993	-0.695519
     29145.56	0.10907	1611767.0	1292041.0	2589461.0	0.221108	-0.695227
     29146.04	0.11910	1744869.0	1398889.0	2801408.0	0.221001	-0.694444
     29146.53	0.13260	1925959.0	1543933.0	3088098.0	0.221091	-0.693222
     29147.02	0.12870	1860289.0	1491403.0	2980677.0	0.221015	-0.692433
     29147.51	0.11458	1670095.0	1338835.0	2673190.0	0.221081	-0.691473
     29148.00	0.14016	2069049.0	1658574.0	3309071.0	0.221131	-0.690709
     29148.49	0.11932	1775779.0	1423379.0	2836621.0	0.221206	-0.689580
     29148.98	0.14398	2128117.0	1705875.0	3396904.0	0.221159	-0.688786
     29149.46	0.12879	1908514.0	1529723.0	3042989.0	0.221238	-0.687754
     29149.95	0.16086	2389370.0	1914788.0	3804394.0	0.221423	-0.686550
     29150.44	0.10834	1599112.0	1281839.0	2545063.0	0.221153	-0.685860
     29150.93	0.10648	1572272.0	1260093.0	2498913.0	0.221336	-0.684670
     29151.42	0.12939	1884628.0	1510856.0	2992637.0	0.221054	-0.683479
     29151.91	0.13144	1946369.0	1559845.0	3085268.0	0.221379	-0.682052
     29152.40	0.12400	1813299.0	1453282.0	2871871.0	0.221323	-0.681139
     29152.88	0.13045	1958187.0	1569456.0	3096832.0	0.221290	-0.679651
     29153.37	0.13810	2026378.0	1623818.0	3200475.0	0.221470	-0.678519
     29153.86	0.17307	2571447.0	2060899.0	4056198.0	0.221326	-0.677104
     29154.35	0.10811	1623376.0	1300723.0	2557064.0	0.221588	-0.675939
     29154.84	0.11508	1709734.0	1370164.0	2689441.0	0.221407	-0.674403
     29155.33	0.12622	1878778.0	1505902.0	2951101.0	0.221230	-0.672786
     29155.82	0.13146	1960686.0	1571018.0	3074074.0	0.221571	-0.671280
     29156.31	0.12744	1860220.0	1490269.0	2912312.0	0.221738	-0.669991
     29156.79	0.13771	2037593.0	1632423.0	3184410.0	0.221704	-0.668202
     29157.28	0.12238	1797207.0	1439646.0	2803846.0	0.221837	-0.666595
     29157.77	0.12954	1965478.0	1574151.0	3060771.0	0.222019	-0.664951
     29158.26	0.14241	2104381.0	1685468.0	3270895.0	0.221978	-0.663020
     29158.75	0.10285	1508234.0	1208163.0	2340230.0	0.221838	-0.661148
     29159.24	0.12889	1885771.0	1510319.0	2919275.0	0.222016	-0.659014
     29159.73	0.12394	1845145.0	1477441.0	2850189.0	0.222246	-0.657074
     29160.22	0.12824	1899096.0	1520854.0	2928925.0	0.222106	-0.655363
     29160.71	0.12463	1832476.0	1467428.0	2818531.0	0.222157	-0.652705
     29161.19	0.13033	1941918.0	1554790.0	2979319.0	0.222336	-0.650354
     29161.68	0.11992	1785020.0	1428908.0	2732760.0	0.222519	-0.648402
     29162.17	0.12908	1901482.0	1522302.0	2903946.0	0.222410	-0.645847
     29162.66	0.11490	1724259.0	1379692.0	2625442.0	0.222937	-0.643389
     29163.15	0.13057	1917163.0	1534013.0	2910165.0	0.222959	-0.640323
     29163.64	0.11123	1657399.0	1326102.0	2509057.0	0.223006	-0.637663
     29164.13	0.12901	1901379.0	1520928.0	2868314.0	0.223259	-0.634404
     29164.62	0.12240	1846113.0	1476624.0	2776607.0	0.223324	-0.631471
     29165.11	0.11843	1761938.0	1409328.0	2640886.0	0.223301	-0.628001
     29165.60	0.11994	1779517.0	1423267.0	2657244.0	0.223387	-0.624335
     29166.09	0.12105	1791762.0	1432725.0	2665405.0	0.223621	-0.620778
     29166.57	0.11794	1739466.0	1390702.0	2576897.0	0.223770	-0.616777
     29167.06	0.13256	1951293.0	1559372.0	2878057.0	0.224209	-0.612832
     29167.55	0.13051	1900935.0	1519582.0	2791347.0	0.223911	-0.608089
     29168.04	0.12669	1852028.0	1479799.0	2705875.0	0.224375	-0.603519
     29168.53	0.14357	2101765.0	1679040.0	3056081.0	0.224555	-0.598911
     29169.02	0.12995	1908800.0	1524537.0	2759506.0	0.224784	-0.593361
     29169.51	0.12139	1764149.0	1408525.0	2534265.0	0.225125	-0.587361
     29170.00	0.11837	1717170.0	1371388.0	2454095.0	0.224854	-0.581935
     29170.49	0.11977	1749973.0	1397013.0	2484375.0	0.225264	-0.575685
     29170.98	0.12584	1861580.0	1485738.0	2624186.0	0.225514	-0.568859
     29171.47	0.13091	1931292.0	1540874.0	2701493.0	0.225839	-0.561455
     29171.96	0.12646	1885512.0	1503410.0	2615497.0	0.226464	-0.553718
     29172.45	0.12679	1860303.0	1483028.0	2558013.0	0.226653	-0.545145
     29172.94	0.12921	1882910.0	1500447.0	2562999.0	0.227055	-0.535415
     29173.42	0.12291	1809891.0	1441696.0	2439426.0	0.227446	-0.525943
     29173.91	0.13155	1915068.0	1524935.0	2552319.0	0.227801	-0.515051
     29174.40	0.13268	1944907.0	1548111.0	2561840.0	0.228179	-0.503690
     29174.89	0.12559	1849758.0	1471430.0	2404445.0	0.228820	-0.491084
     29175.38	0.12896	1883540.0	1497794.0	2413095.0	0.229160	-0.476917
     29175.87	0.13095	1927757.0	1532495.0	2433037.0	0.229460	-0.462243
     29176.36	0.12967	1930637.0	1534007.0	2395997.0	0.229967	-0.445916
     29176.85	0.12853	1920558.0	1525205.0	2339170.0	0.230487	-0.427667
     29177.34	0.13755	1998462.0	1585496.0	2381051.0	0.231481	-0.406645
     29177.83	0.10977	1616972.0	1281911.0	1883666.0	0.232203	-0.384868
     29178.32	0.12629	1861469.0	1474481.0	2113399.0	0.233060	-0.359991
     29178.81	0.12792	1892417.0	1497781.0	2089873.0	0.233870	-0.333119
     29179.30	0.12567	1811770.0	1432796.0	1931723.0	0.234676	-0.298785
     29179.79	0.12044	1763703.0	1393199.0	1817616.0	0.235813	-0.265923
     29180.28	0.12855	1859142.0	1466766.0	1838776.0	0.237055	-0.226040
     29180.77	0.12109	1768955.0	1393858.0	1674402.0	0.238314	-0.183381
     29181.26	0.13385	1903260.0	1497350.0	1710643.0	0.239871	-0.133172
     29181.75	0.10323	1485831.0	1166980.0	1262657.0	0.241555	-0.0787990
     29182.24	0.11495	1637291.0	1283907.0	1308298.0	0.243135	-0.0188193
     29182.73	0.11758	1714826.0	1341643.0	1284813.0	0.245417	0.0432818
     29183.22	0.10609	1533379.0	1196893.0	1069989.0	0.247745	0.112081
     29183.71	0.12821	1834976.0	1428680.0	1185483.0	0.250280	0.186601
     29184.20	0.10801	1565203.0	1215468.0	937951.0	0.252886	0.259187
     29184.68	0.13983	2006110.0	1552678.0	1105915.0	0.256216	0.339308
     29185.17	0.11043	1605450.0	1238697.0	822361.0	0.259344	0.409636
     29185.66	0.11993	1741371.0	1337903.0	821869.0	0.263569	0.487278
     29186.15	0.11628	1671147.0	1278680.0	731921.0	0.267682	0.557911
     29186.64	0.13794	1999655.0	1523664.0	818032.0	0.271857	0.621972
     29187.13	0.13143	1903240.0	1442212.0	726691.0	0.277380	0.685432
     29187.62	0.12277	1766539.0	1331111.0	636432.0	0.283008	0.737892
     29188.11	0.14183	2026186.0	1518312.0	694696.0	0.288556	0.781880
     29188.60	0.13631	1936110.0	1441906.0	636365.0	0.294715	0.817949
     29189.09	0.11609	1635593.0	1210079.0	519750.0	0.301320	0.845093
     29189.58	0.13323	1913999.0	1407675.0	594169.0	0.307255	0.862531
     29190.07	0.12108	1742988.0	1273727.0	532231.0	0.313654	0.872625
     29190.56	0.12834	1823514.0	1324317.0	551937.0	0.319869	0.875218
     29191.05	0.13239	1917325.0	1385458.0	579302.0	0.324900	0.871962
     29191.54	0.12928	1853461.0	1332658.0	561793.0	0.329879	0.863797
     29192.03	0.12204	1763492.0	1263239.0	538153.0	0.333617	0.853291
     29192.52	0.14447	2070537.0	1478030.0	639054.0	0.337098	0.838476
     29193.01	0.12806	1838783.0	1309411.0	575057.0	0.339527	0.822864
     29193.50	0.12585	1815391.0	1291086.0	576111.0	0.340817	0.806939
     29193.99	0.14382	2037892.0	1447853.0	656982.0	0.341834	0.790180
     29194.48	0.11940	1696871.0	1205827.0	555919.0	0.341620	0.774298
     29194.97	0.14402	2027481.0	1441804.0	674720.0	0.340899	0.759353
     29195.46	0.12487	1773182.0	1262306.0	599175.0	0.339835	0.745142
     29195.95	0.12386	1727422.0	1231803.0	592374.0	0.338151	0.732096
     29196.44	0.13250	1898860.0	1356780.0	659827.0	0.336139	0.720892
     29196.93	0.11491	1606643.0	1150988.0	565927.0	0.333526	0.709911
     29197.42	0.12115	1706979.0	1226151.0	608261.0	0.330845	0.701031
     29197.92	0.13184	1845227.0	1328781.0	664772.0	0.328340	0.692573
     29198.41	0.12066	1685670.0	1217341.0	613436.0	0.325494	0.685348
     29198.90	0.13278	1888675.0	1367166.0	692683.0	0.323136	0.679923
     29199.39	0.12273	1723466.0	1251366.0	637017.0	0.320102	0.675195
     29199.88	0.13009	1864054.0	1356080.0	692829.0	0.318156	0.671570
     29200.37	0.12068	1685668.0	1229523.0	630098.0	0.315536	0.668506
     29200.86	0.12168	1734852.0	1268280.0	651196.0	0.313260	0.666606
     29201.35	0.12678	1787369.0	1309034.0	672893.0	0.311455	0.665458
     29201.84	0.12809	1816637.0	1332948.0	685546.0	0.309594	0.664933
     29202.33	0.10992	1547878.0	1137802.0	585217.0	0.307787	0.664871
     29202.82	0.12524	1775923.0	1306980.0	671440.0	0.306601	0.666050
     29203.31	0.12408	1722834.0	1269659.0	651156.0	0.305222	0.667754
     29203.80	0.12072	1717786.0	1267230.0	648742.0	0.304203	0.669554
     29204.29	0.12174	1722844.0	1272968.0	650144.0	0.302625	0.671913
     29204.78	0.11178	1570247.0	1161240.0	591127.0	0.301745	0.675213
     29205.27	0.13265	1865244.0	1380854.0	700608.0	0.300690	0.678509
     29205.76	0.12278	1716808.0	1271864.0	643234.0	0.299983	0.681730
     29206.25	0.12150	1697037.0	1257711.0	634403.0	0.299590	0.684364
     29206.74	0.13554	1910645.0	1417419.0	712646.0	0.298603	0.687608
     29207.23	0.12816	1782325.0	1323014.0	663197.0	0.298006	0.690596
     29207.72	0.13205	1872742.0	1390638.0	695328.0	0.297641	0.693134
     29208.21	0.13368	1905434.0	1415864.0	706449.0	0.296970	0.695244
     29208.70	0.11278	1617988.0	1202331.0	598542.0	0.296921	0.697521
     29209.19	0.12844	1813611.0	1349074.0	670293.0	0.295901	0.699459
     29209.69	0.11733	1666533.0	1240104.0	615253.0	0.295550	0.700917
     29210.18	0.12865	1837220.0	1368180.0	677982.0	0.294772	0.702116
     29210.67	0.13163	1855640.0	1382721.0	684794.0	0.294176	0.702691
     29211.16	0.13079	1853043.0	1381447.0	683856.0	0.293698	0.703139
     29211.65	0.11643	1688212.0	1259408.0	623366.0	0.293028	0.703263
     29212.14	0.13227	1851105.0	1382294.0	685051.0	0.292038	0.702006
     29212.63	0.12815	1794508.0	1340615.0	664758.0	0.291602	0.701461
     29213.12	0.12504	1777579.0	1329004.0	659692.0	0.290823	0.700412
     29213.61	0.12915	1843671.0	1379362.0	686609.0	0.290138	0.697611
     29214.10	0.13499	1932215.0	1446202.0	721339.0	0.289726	0.695587
     29214.59	0.12709	1818691.0	1362431.0	681596.0	0.288846	0.692589
     29215.08	0.13206	1871411.0	1402682.0	704572.0	0.288307	0.688551
     29215.57	0.13234	1885027.0	1413755.0	712509.0	0.287693	0.685212
     29216.06	0.12258	1739518.0	1304840.0	660267.0	0.287528	0.681191
     29216.56	0.13155	1871460.0	1404685.0	714113.0	0.286906	0.676527
     29217.05	0.12700	1804769.0	1355760.0	692325.0	0.286070	0.672062
     29217.54	0.11518	1645171.0	1235993.0	634335.0	0.285970	0.667053
     29218.03	0.12205	1724216.0	1295896.0	667553.0	0.285570	0.663339
     29218.52	0.13212	1896463.0	1425611.0	737193.0	0.285390	0.659506
     29219.01	0.12320	1781284.0	1338723.0	694508.0	0.285618	0.656268
     29219.50	0.13270	1916670.0	1441041.0	749749.0	0.285224	0.653383
     29219.99	0.13582	1969235.0	1480651.0	771956.0	0.285163	0.651310
     29220.48	0.10968	1600267.0	1203313.0	628375.0	0.285092	0.649697
     29220.97	0.10328	1498036.0	1126173.0	588806.0	0.285330	0.648484
     29221.47	0.11229	1611576.0	1211675.0	633362.0	0.285209	0.648717
     29221.96	0.12194	1759883.0	1322514.0	690809.0	0.285713	0.649426
     29222.45	0.11106	1595274.0	1198782.0	625015.0	0.285739	0.651286
     29222.94	0.11847	1723883.0	1295146.0	674074.0	0.285956	0.653039
     29223.43	0.12332	1791529.0	1345345.0	698254.0	0.286419	0.655823
     29223.92	0.12798	1835810.0	1378208.0	712918.0	0.286702	0.659173
     29224.41	0.10872	1576943.0	1183403.0	610232.0	0.287094	0.662310
     29224.90	0.11802	1695466.0	1272273.0	653839.0	0.287153	0.665699
     29225.39	0.12401	1801831.0	1351638.0	691573.0	0.287486	0.670104
     29225.89	0.13970	2046088.0	1534049.0	782097.0	0.288019	0.673687
     29226.38	0.12296	1788354.0	1340874.0	681074.0	0.287974	0.677406
     29226.87	0.14118	2047918.0	1534783.0	776278.0	0.288435	0.681634
     29227.36	0.14850	2151566.0	1611846.0	811994.0	0.288816	0.685642
     29227.85	0.16182	2376268.0	1779558.0	893141.0	0.289166	0.689376
     29228.34	0.082004	1212374.0	907672.0	453642.0	0.289453	0.693575
     29228.83	0.13676	1989696.0	1489003.0	741019.0	0.289875	0.697836
     29229.32	0.093011	1351349.0	1011047.0	501032.0	0.290117	0.702072
     29229.81	0.14571	2143448.0	1603032.0	791548.0	0.290519	0.705662
     29230.31	0.13401	1967495.0	1470951.0	723467.0	0.290852	0.709609
     29230.80	0.13931	2033358.0	1519880.0	744584.0	0.291057	0.713561
     29231.29	0.13281	1934177.0	1444754.0	704573.0	0.291743	0.718102
     29231.78	0.15260	2172467.0	1622623.0	789002.0	0.291819	0.721030
     29232.27	0.093283	1337687.0	998477.0	483532.0	0.292466	0.725114
     29232.76	0.13106	1847301.0	1378771.0	664920.0	0.292533	0.729281
     29233.25	0.12773	1847845.0	1378183.0	662736.0	0.293254	0.732145
     29233.75	0.13860	1987653.0	1481754.0	709958.0	0.293728	0.735776
     29234.24	0.13174	1899544.0	1415842.0	676293.0	0.293889	0.738853
     29234.73	0.14165	2033441.0	1514984.0	721672.0	0.294325	0.741589
     29235.22	0.19169	2738878.0	2039162.0	968946.0	0.295009	0.744085
     29235.71	0.097292	1397150.0	1040076.0	493186.0	0.295141	0.746163
     29236.20	0.087488	1261612.0	938576.0	444317.0	0.295782	0.747826
     29236.69	0.11197	1626219.0	1209355.0	572333.0	0.296171	0.748121
     29237.19	0.12401	1800655.0	1338778.0	633273.0	0.296393	0.748611
     29237.68	0.13013	1858192.0	1380969.0	653070.0	0.296819	0.748856
     29238.17	0.12842	1832402.0	1361516.0	644109.0	0.297029	0.748486
     29238.66	0.11683	1701364.0	1263555.0	598134.0	0.297501	0.747870
     29239.15	0.15255	2194903.0	1630134.0	772763.0	0.297476	0.746445
     29239.64	0.10176	1487770.0	1104181.0	524400.0	0.298174	0.744604
     29240.14	0.11644	1692284.0	1255903.0	597816.0	0.298224	0.742327
     29240.63	0.11948	1745194.0	1294271.0	617941.0	0.298918	0.739310
     29241.12	0.12983	1901215.0	1409776.0	674798.0	0.299062	0.736773
     29241.61	0.11418	1650561.0	1224187.0	587938.0	0.298838	0.733411
     29242.10	0.11892	1700881.0	1261020.0	608168.0	0.299225	0.729225
     29242.59	0.12038	1711294.0	1268651.0	613804.0	0.299296	0.726034
     29243.09	0.12572	1795375.0	1330938.0	646451.0	0.299330	0.722142
     29243.58	0.11450	1608245.0	1191438.0	581345.0	0.299983	0.717572
     29244.07	0.12609	1814195.0	1344163.0	658270.0	0.299870	0.713912
     29244.56	0.12773	1843611.0	1365647.0	671447.0	0.300098	0.709949
     29245.05	0.12415	1754930.0	1300237.0	641963.0	0.299882	0.705771
     29245.55	0.13144	1874424.0	1388073.0	688173.0	0.300385	0.701631
     29246.04	0.12241	1771463.0	1311845.0	652930.0	0.300371	0.697720
     29246.53	0.13775	1968160.0	1457409.0	728109.0	0.300439	0.693965
     29247.02	0.13685	1944068.0	1439170.0	721684.0	0.300716	0.690234
     29247.51	0.12305	1737032.0	1286173.0	647215.0	0.300507	0.686748
     29248.00	0.11302	1596317.0	1181813.0	596640.0	0.300649	0.683491
     29248.50	0.13108	1836442.0	1359800.0	688843.0	0.300492	0.680080
     29248.99	0.11780	1631997.0	1208249.0	613519.0	0.300632	0.677716
     29249.48	0.12885	1811223.0	1340671.0	682931.0	0.300832	0.674532
     29249.97	0.12912	1839638.0	1361829.0	695532.0	0.300740	0.671907
     29250.46	0.13262	1899900.0	1405942.0	719444.0	0.301094	0.669984
     29250.96	0.12952	1852787.0	1371211.0	702879.0	0.300997	0.668265
     29251.45	0.12382	1769411.0	1309323.0	672657.0	0.301137	0.666030
     29251.94	0.11490	1629440.0	1206086.0	620250.0	0.300856	0.665013
     29252.43	0.14403	2069757.0	1532524.0	789134.0	0.300515	0.663735
     29252.92	0.12604	1769642.0	1310262.0	675101.0	0.300550	0.663120
     29253.42	0.12556	1801144.0	1333604.0	687370.0	0.300537	0.662768
     29253.91	0.13482	1939923.0	1436238.0	740528.0	0.300621	0.662419
     29254.40	0.15295	2185477.0	1618583.0	834345.0	0.300283	0.662659
     29254.89	0.10448	1486615.0	1100738.0	567436.0	0.300521	0.662608
     29255.39	0.12644	1824663.0	1351739.0	695975.0	0.300003	0.663833
     29255.88	0.12626	1824678.0	1351776.0	695830.0	0.299984	0.664069
     29256.37	0.11817	1705001.0	1262946.0	649457.0	0.300119	0.665066
     29256.86	0.13520	1980672.0	1467489.0	753366.0	0.299883	0.666757
     29257.35	0.12190	1752016.0	1298745.0	665791.0	0.299369	0.668178
     29257.85	0.12715	1843555.0	1366692.0	699694.0	0.299303	0.669505
     29258.34	0.18122	2597551.0	1926126.0	983812.0	0.299058	0.671831
     29258.83	0.10867	1562375.0	1158455.0	590989.0	0.299120	0.673045
     29259.32	0.093972	1364690.0	1012363.0	514938.0	0.298640	0.675996
     29259.82	0.11162	1608272.0	1193184.0	605590.0	0.298535	0.678177
     29260.31	0.091340	1354366.0	1004784.0	508792.0	0.298561	0.680489
     29260.80	0.12659	1853388.0	1375961.0	694742.0	0.297863	0.683367
     29261.29	0.13803	2032988.0	1509608.0	759789.0	0.297657	0.686565
     29261.79	0.15298	2249114.0	1670643.0	838557.0	0.297328	0.689281
     29262.28	0.14102	2075065.0	1541637.0	771444.0	0.297148	0.692336
     29262.77	0.083893	1239878.0	921485.0	459573.0	0.296782	0.695689
     29263.26	0.074030	1080946.0	803514.0	399167.0	0.296597	0.699615
     29263.75	0.12937	1889927.0	1405550.0	696131.0	0.296110	0.702646
     29264.25	0.11735	1699129.0	1263566.0	624023.0	0.296178	0.705506
     29264.74	0.13389	1956117.0	1454916.0	716153.0	0.296013	0.708810
     29265.23	0.13927	1991702.0	1482430.0	727393.0	0.295307	0.711971
     29265.72	0.13400	1938503.0	1442757.0	705389.0	0.295360	0.715562
     29266.22	0.12958	1918823.0	1428808.0	696463.0	0.294871	0.718581
     29266.71	0.13766	1993837.0	1485200.0	721804.0	0.294511	0.721551
     29267.20	0.11389	1665275.0	1240561.0	601170.0	0.294427	0.724441
     29267.70	0.12728	1868303.0	1392234.0	673051.0	0.294121	0.726844
     29268.19	0.12912	1879683.0	1401122.0	675384.0	0.293830	0.729747
     29268.68	0.13217	1913378.0	1426450.0	686477.0	0.293681	0.731371
     29269.17	0.11529	1656876.0	1235518.0	593690.0	0.293444	0.732888
     29269.67	0.13331	1939815.0	1447067.0	694079.0	0.293054	0.734708
     29270.16	0.13995	2050989.0	1530082.0	732876.0	0.293001	0.736100
     29270.65	0.13091	1904038.0	1420840.0	679908.0	0.292729	0.737046
     29271.14	0.13613	1960541.0	1463672.0	699885.0	0.292272	0.737788
     29271.64	0.12544	1844224.0	1376761.0	657866.0	0.292325	0.738488
     29272.13	0.13517	1956950.0	1461186.0	698527.0	0.292139	0.738030
     29272.62	0.13299	1958425.0	1462767.0	698758.0	0.291811	0.738781
     29273.11	0.13071	1905487.0	1423098.0	680441.0	0.291901	0.737850
     29273.61	0.12278	1776448.0	1327051.0	635131.0	0.291657	0.736883
     29274.10	0.12918	1885525.0	1409089.0	674898.0	0.291263	0.736137
     29274.59	0.12422	1815599.0	1356867.0	650753.0	0.291237	0.734803
     29275.09	0.13315	1951661.0	1458570.0	700491.0	0.291224	0.733430
     29275.58	0.11510	1653936.0	1236451.0	594757.0	0.290913	0.731848
     29276.07	0.13130	1917964.0	1433813.0	690368.0	0.290927	0.730868
     29276.56	0.12140	1713740.0	1281383.0	618342.0	0.290738	0.728654
     29277.06	0.12491	1823986.0	1364163.0	659339.0	0.290483	0.727059
     29277.55	0.12582	1836040.0	1373192.0	664816.0	0.290473	0.725383
     29278.04	0.12656	1834391.0	1372369.0	665951.0	0.290174	0.723078
     29278.54	0.12384	1795316.0	1343055.0	653012.0	0.290234	0.721107
     29279.03	0.11768	1701855.0	1273115.0	620233.0	0.290252	0.719127
     29279.52	0.12136	1760506.0	1317425.0	642944.0	0.289922	0.717377
     29280.02	0.12085	1773662.0	1327209.0	649296.0	0.289968	0.714945
     29280.51	0.11740	1734832.0	1298073.0	636064.0	0.290030	0.713337
     29281.00	0.13186	1912862.0	1431803.0	702717.0	0.289666	0.711736
     29281.49	0.11225	1608155.0	1203933.0	592129.0	0.289494	0.709624
     29281.99	0.12207	1780244.0	1332739.0	656741.0	0.289514	0.707702
     29282.48	0.12057	1757369.0	1315357.0	648746.0	0.289710	0.706822
     29282.97	0.13195	1903126.0	1424568.0	703949.0	0.289629	0.704918
     29283.47	0.12749	1842087.0	1378852.0	682446.0	0.289648	0.703323
     29283.96	0.12675	1828817.0	1369020.0	678658.0	0.289574	0.701733
     29284.45	0.13382	1945371.0	1456529.0	722789.0	0.289396	0.700694
     29284.95	0.15122	2187869.0	1637219.0	813251.0	0.289929	0.699715
     29285.44	0.11302	1622221.0	1214540.0	604273.0	0.289431	0.698095
     29285.93	0.11561	1691564.0	1266237.0	630620.0	0.289604	0.697101
     29286.43	0.12902	1880339.0	1407644.0	701780.0	0.289535	0.696053
     29286.92	0.11721	1697375.0	1271100.0	633985.0	0.289200	0.695613
     29287.41	0.12319	1789690.0	1340065.0	669104.0	0.289324	0.694534
     29287.91	0.12987	1858883.0	1392102.0	695611.0	0.289161	0.693780
     29288.40	0.14614	2117245.0	1585397.0	792556.0	0.289281	0.693327
     29288.89	0.12527	1829407.0	1369527.0	685270.0	0.289526	0.692408
     29289.39	0.10483	1507088.0	1128819.0	564902.0	0.289007	0.692275
     29289.88	0.12099	1763346.0	1320034.0	660603.0	0.289556	0.692260
     29290.37	0.13490	1960971.0	1467871.0	735409.0	0.289627	0.691142
     29290.87	0.13092	1900851.0	1423154.0	713074.0	0.289426	0.691046
     29291.36	0.13137	1884498.0	1410344.0	706508.0	0.289828	0.691254
     29291.85	0.13659	1985183.0	1485924.0	744506.0	0.289674	0.691071
     29292.35	0.14090	2016016.0	1508894.0	756483.0	0.289746	0.690452
     29292.84	0.11961	1728217.0	1293228.0	648108.0	0.289949	0.690839
     29293.33	0.11879	1722914.0	1289296.0	645972.0	0.289921	0.691095
     29293.83	0.11922	1755204.0	1313283.0	658041.0	0.290055	0.691018
     29294.32	0.13091	1885892.0	1411033.0	707041.0	0.290079	0.690989
     29294.81	0.12160	1732338.0	1296418.0	649704.0	0.289867	0.690843
     29295.31	0.12444	1824052.0	1364751.0	683576.0	0.290088	0.691389
     29295.80	0.13784	1984622.0	1484691.0	743305.0	0.290222	0.691855
     29296.29	0.12806	1817569.0	1359620.0	680106.0	0.290295	0.692712
     29296.79	0.11263	1609893.0	1204346.0	602105.0	0.290231	0.693260
     29297.28	0.11742	1683976.0	1259819.0	629698.0	0.290190	0.693483
     29297.77	0.11542	1663049.0	1244177.0	621619.0	0.290178	0.693902
     29298.27	0.10281	1495943.0	1118977.0	558595.0	0.290342	0.694745
     29298.76	0.11997	1736344.0	1298503.0	648013.0	0.290570	0.695057
     29299.26	0.15251	2192682.0	1640008.0	817533.0	0.290424	0.696165
     29299.75	0.12008	1726682.0	1291409.0	643417.0	0.290468	0.696696
     29300.24	0.14692	2108935.0	1577414.0	785424.0	0.290396	0.697318
     29300.74	0.10702	1523783.0	1139673.0	566613.0	0.290455	0.698820
     29301.23	0.076788	1119072.0	836728.0	415727.0	0.290756	0.699470
     29301.72	0.12195	1793916.0	1341285.0	665854.0	0.290773	0.700313
     29302.22	0.11388	1643111.0	1228489.0	609617.0	0.290806	0.700709
     29302.71	0.14143	2034389.0	1521044.0	754432.0	0.290799	0.701187
     29303.21	0.17237	2471491.0	1847925.0	915057.0	0.290758	0.702832
     29303.70	0.10661	1538720.0	1150230.0	569247.0	0.290989	0.703403
     29304.19	0.11860	1739297.0	1300174.0	642697.0	0.290983	0.704580
     29304.69	0.11282	1628166.0	1217125.0	601235.0	0.290963	0.705261
     29305.18	0.13894	2009822.0	1501975.0	741517.0	0.291265	0.705838
     29305.67	0.12917	1858874.0	1388908.0	685229.0	0.291453	0.706520
     29306.17	0.12294	1770943.0	1323582.0	652395.0	0.291170	0.707447
     29306.66	0.13169	1871821.0	1398947.0	689330.0	0.291192	0.707755
     29307.16	0.12544	1805310.0	1348508.0	663597.0	0.291734	0.709079
     29307.65	0.20610	2968540.0	2217851.0	1090564.0	0.291532	0.709844
     29308.14	0.089704	1286037.0	961022.0	472256.0	0.291323	0.710476
     29308.64	0.095319	1358406.0	1015082.0	498584.0	0.291343	0.710953
     29309.13	0.13897	1955434.0	1461129.0	717476.0	0.291403	0.711225
     29309.63	0.12928	1797126.0	1342688.0	658807.0	0.291515	0.711998
     29310.12	0.13160	1863342.0	1392674.0	683233.0	0.291146	0.712145
     29310.61	0.14420	2058320.0	1537860.0	753817.0	0.291498	0.712997
     29311.11	0.12712	1812642.0	1354127.0	663387.0	0.291628	0.713554
     29311.60	0.13935	1975030.0	1475537.0	722447.0	0.291562	0.714133
     29312.10	0.12078	1720627.0	1285429.0	629567.0	0.291596	0.713816
     29312.59	0.11659	1681337.0	1255743.0	614730.0	0.291862	0.714300
     29313.08	0.13233	1880834.0	1404857.0	687340.0	0.291780	0.714862
     29313.58	0.11978	1750099.0	1307339.0	639462.0	0.291679	0.715122
     29314.07	0.12605	1776734.0	1327077.0	649253.0	0.291798	0.714912
     29314.57	0.12516	1801670.0	1345725.0	658045.0	0.291781	0.715415
     29315.06	0.12857	1835405.0	1371018.0	670340.0	0.291712	0.715524
     29315.56	0.12869	1851564.0	1383599.0	676436.0	0.291343	0.715606
     29316.05	0.12033	1721575.0	1285926.0	629003.0	0.291760	0.715098
     29316.54	0.12380	1774259.0	1325313.0	648014.0	0.291734	0.715492
     29317.04	0.12075	1742530.0	1302001.0	636702.0	0.291436	0.715356
     29317.53	0.12181	1763718.0	1316972.0	643665.0	0.292089	0.715912
     29318.03	0.12046	1714298.0	1280136.0	625577.0	0.292037	0.716047
     29318.52	0.11982	1722715.0	1286649.0	629285.0	0.291860	0.715212
     29319.02	0.12823	1854611.0	1385127.0	677175.0	0.291883	0.715617
     29319.51	0.12300	1764870.0	1318493.0	644528.0	0.291588	0.715726
     29320.00	0.11365	1640739.0	1225037.0	599351.0	0.292176	0.714879
     29320.50	0.12219	1765164.0	1318120.0	645159.0	0.292037	0.714465
     29320.99	0.11423	1635133.0	1221360.0	597518.0	0.291759	0.714936
     29321.49	0.13334	1874106.0	1399603.0	684998.0	0.291943	0.714528
     29321.98	0.12731	1808501.0	1350429.0	661017.0	0.292076	0.714398
     29322.48	0.12861	1832235.0	1368715.0	670335.0	0.291664	0.713850
     29322.97	0.13873	1974807.0	1474827.0	722532.0	0.291930	0.713534
     29323.47	0.13160	1872876.0	1399169.0	685465.0	0.291597	0.713536
     29323.96	0.12536	1782522.0	1331290.0	652582.0	0.291881	0.712967
     29324.45	0.11397	1631733.0	1218588.0	597678.0	0.291950	0.712396
     29324.95	0.13991	1964799.0	1467574.0	720010.0	0.291779	0.712101
     29325.44	0.11355	1621806.0	1211309.0	595016.0	0.291839	0.710869
     29325.94	0.13361	1881011.0	1404955.0	690294.0	0.291804	0.710643
     29326.43	0.11737	1682395.0	1256829.0	617320.0	0.291626	0.710960
     29326.93	0.14455	2066834.0	1543340.0	758909.0	0.292069	0.709822
     29327.42	0.12064	1709399.0	1276561.0	628047.0	0.291972	0.709310
     29327.92	0.12037	1710315.0	1277315.0	628623.0	0.291917	0.708984
     29328.41	0.11968	1737802.0	1298048.0	639163.0	0.291759	0.708457
     29328.91	0.13189	1940241.0	1449005.0	713720.0	0.291935	0.708142
     29329.40	0.12853	1849376.0	1381400.0	680833.0	0.291751	0.707536
     29329.89	0.13262	1921765.0	1435848.0	708176.0	0.291488	0.706818
     29330.39	0.14518	2056666.0	1536586.0	758313.0	0.291523	0.706222
     29330.88	0.13013	1857986.0	1388146.0	685463.0	0.291524	0.705630
     29331.38	0.11990	1711987.0	1279048.0	631733.0	0.291539	0.705404
     29331.87	0.12285	1734496.0	1295627.0	640056.0	0.291722	0.705194
     29332.37	0.11476	1598981.0	1194969.0	591085.0	0.291246	0.703916
     29332.86	0.13287	1890935.0	1412738.0	698600.0	0.291542	0.704207
     29333.36	0.12273	1734980.0	1296319.0	641560.0	0.291467	0.703381
     29333.85	0.12612	1778797.0	1329385.0	658079.0	0.291221	0.703147
     29334.35	0.12173	1720666.0	1285861.0	636652.0	0.291283	0.702961
     29334.84	0.13726	1983480.0	1482404.0	734574.0	0.291188	0.702130
     29335.34	0.10930	1569475.0	1172830.0	581469.0	0.291322	0.701617
     29335.83	0.11849	1703729.0	1273043.0	631464.0	0.291409	0.701124
     29336.33	0.12814	1841902.0	1376687.0	682872.0	0.291119	0.701128
     29336.82	0.10751	1516396.0	1133314.0	562418.0	0.291190	0.700656
     29337.32	0.11715	1631082.0	1218970.0	605202.0	0.291237	0.700199
     29337.81	0.11528	1665977.0	1245380.0	618192.0	0.290971	0.700397
     29338.31	0.11954	1712294.0	1280117.0	635604.0	0.290883	0.700131
     29338.80	0.13003	1802314.0	1347310.0	669594.0	0.290961	0.699194
     29339.30	0.12001	1728584.0	1292595.0	642313.0	0.290651	0.699331
     29339.79	0.10652	1538453.0	1150358.0	571780.0	0.290704	0.699074
     29340.29	0.11034	1575995.0	1178220.0	585614.0	0.290882	0.699099
     29340.78	0.12522	1779168.0	1330351.0	661660.0	0.290703	0.698446
     29341.28	0.11653	1640803.0	1226985.0	610237.0	0.290626	0.698468
     29341.77	0.13802	1989711.0	1488069.0	740288.0	0.290510	0.698195
     29342.27	0.17639	2528178.0	1891206.0	941077.0	0.290284	0.697945
     29342.76	0.13609	1949578.0	1458217.0	725666.0	0.290398	0.697880
     29343.26	0.13026	1883077.0	1408561.0	700941.0	0.290339	0.697900
     29343.75	0.091891	1297338.0	970556.0	483005.0	0.290201	0.697842
     29344.25	0.12915	1858550.0	1390422.0	692201.0	0.290189	0.697486
     29344.74	0.12203	1753590.0	1312287.0	653075.0	0.289894	0.697835
     29345.24	0.12925	1872088.0	1400852.0	697606.0	0.289974	0.697181
     29345.73	0.13302	1921872.0	1438052.0	715827.0	0.290010	0.697606
     29346.23	0.13804	1966413.0	1470928.0	732466.0	0.290318	0.697232
     29346.72	0.14535	2090440.0	1564399.0	779164.0	0.289873	0.697035
     29347.22	0.12078	1723912.0	1290399.0	642503.0	0.289645	0.697335
     29347.72	0.11188	1631550.0	1221011.0	607876.0	0.289851	0.697464
     29348.21	0.13914	2005261.0	1500887.0	747208.0	0.289718	0.697468
     29348.71	0.12944	1873469.0	1402317.0	698140.0	0.289666	0.697461
     29349.20	0.13062	1849642.0	1384981.0	689577.0	0.289306	0.697363
     29349.70	0.13616	1988797.0	1488900.0	741177.0	0.289492	0.697553
     29350.19	0.12499	1806827.0	1352651.0	672673.0	0.289506	0.698562
     29350.69	0.14304	2039780.0	1527398.0	760283.0	0.289276	0.697630
     29351.18	0.12468	1775384.0	1329839.0	661632.0	0.288959	0.698104
     29351.68	0.12171	1767721.0	1323996.0	658540.0	0.289037	0.698384
     29352.17	0.11893	1713883.0	1283708.0	638557.0	0.289009	0.698297
     29352.67	0.12931	1875402.0	1404699.0	698503.0	0.289000	0.698639
     29353.16	0.12686	1802647.0	1350774.0	671538.0	0.288578	0.698862
     29353.66	0.13051	1791079.0	1342341.0	667526.0	0.288403	0.698592
     29354.16	0.12265	1754434.0	1314489.0	653445.0	0.288698	0.698945
     29354.65	0.12834	1845086.0	1382310.0	687253.0	0.288770	0.698809
     29355.15	0.13278	1885179.0	1413054.0	702038.0	0.288269	0.699521
     29355.64	0.10944	1562899.0	1171733.0	582252.0	0.288059	0.699336
     29356.14	0.13090	1876960.0	1407194.0	698919.0	0.288056	0.699818
     29356.63	0.12065	1708353.0	1280921.0	636231.0	0.287950	0.699773
     29357.13	0.12337	1767684.0	1324840.0	657645.0	0.288379	0.700382
     29357.63	0.13086	1870964.0	1402537.0	696190.0	0.288171	0.700415
     29358.12	0.11956	1702253.0	1276370.0	633486.0	0.287933	0.700537
     29358.62	0.11697	1678312.0	1258488.0	624440.0	0.287878	0.700811
     29359.11	0.11794	1684424.0	1263163.0	626464.0	0.287805	0.701283
     29359.61	0.11923	1687585.0	1265567.0	627527.0	0.287778	0.701489
     29360.10	0.11825	1649897.0	1237606.0	613702.0	0.287534	0.701425
     29360.60	0.11897	1710578.0	1283470.0	635892.0	0.287264	0.702294
     29361.09	0.12728	1815826.0	1362376.0	675136.0	0.287310	0.702071
     29361.59	0.13141	1888733.0	1417322.0	702355.0	0.287137	0.702085
     29362.09	0.13097	1869909.0	1403161.0	694990.0	0.287162	0.702585
     29362.58	0.11017	1588487.0	1191836.0	590246.0	0.287287	0.702711
     29363.08	0.14509	2068401.0	1552757.0	768719.0	0.286744	0.703062
     29363.57	0.12290	1738188.0	1304317.0	645643.0	0.287164	0.703188
     29364.07	0.12836	1822526.0	1367723.0	677093.0	0.287076	0.703094
     29364.57	0.12710	1810458.0	1358969.0	672380.0	0.286854	0.703658
     29365.06	0.12126	1740127.0	1305780.0	646526.0	0.287158	0.702942
     29365.56	0.13303	1869032.0	1403173.0	694183.0	0.286685	0.703756
     29366.05	0.11659	1619145.0	1215635.0	601813.0	0.286632	0.703075
     29366.55	0.12406	1736458.0	1303417.0	645020.0	0.286858	0.703463
     29367.05	0.13407	1867718.0	1402733.0	694282.0	0.286295	0.703300
     29367.54	0.11785	1658358.0	1245241.0	616492.0	0.286499	0.703039
     29368.04	0.12633	1757669.0	1320214.0	653463.0	0.286195	0.703263
     29368.53	0.13517	1871754.0	1405566.0	696050.0	0.286436	0.702774
     29369.03	0.12468	1772115.0	1330923.0	658874.0	0.286301	0.703096
     29369.53	0.13281	1876106.0	1408712.0	697148.0	0.286523	0.703433
     29370.02	0.13360	1825384.0	1371151.0	678722.0	0.286140	0.703194
     29370.52	0.12606	1773913.0	1332527.0	659663.0	0.286111	0.703103
     29371.01	0.13908	1941147.0	1457914.0	721999.0	0.286272	0.702738
     29371.51	0.11971	1652742.0	1241474.0	615062.0	0.286136	0.702332
     29372.01	0.12662	1764748.0	1325864.0	656784.0	0.285944	0.702464
     29372.50	0.13059	1837860.0	1380888.0	684397.0	0.285875	0.701944
     29373.00	0.12618	1803339.0	1354720.0	671440.0	0.286045	0.701925
     29373.49	0.12641	1780104.0	1337718.0	662945.0	0.285707	0.702028
     29373.99	0.12414	1749605.0	1314652.0	651924.0	0.285818	0.701399
     29374.49	0.13180	1843758.0	1385288.0	687311.0	0.285898	0.700876
     29374.98	0.12176	1685521.0	1267037.0	628652.0	0.285394	0.700859
     29375.48	0.12526	1772433.0	1331595.0	660785.0	0.285976	0.700704
     29375.98	0.11761	1670940.0	1256072.0	623533.0	0.285397	0.700343
     29376.47	0.12384	1738932.0	1306667.0	648974.0	0.285792	0.699842
     29376.97	0.11013	1554626.0	1168230.0	580252.0	0.285745	0.699783
     29377.46	0.11939	1673466.0	1257913.0	624971.0	0.285443	0.699504
     29377.96	0.12963	1823284.0	1370470.0	681514.0	0.285486	0.698592
     29378.46	0.10877	1519117.0	1141774.0	567815.0	0.285546	0.698543
     29378.95	0.12440	1762240.0	1324755.0	658980.0	0.285358	0.698290
     29379.45	0.12476	1749921.0	1315395.0	654681.0	0.285434	0.697744
     29379.95	0.093909	1306808.0	982338.0	489292.0	0.285407	0.696976
     29380.44	0.12303	1754703.0	1318951.0	657015.0	0.285463	0.696885
     29380.94	0.12201	1710944.0	1286106.0	641162.0	0.285426	0.696092
     29381.44	0.13126	1821813.0	1369414.0	682888.0	0.285449	0.695807
     29381.93	0.11821	1669735.0	1255155.0	626377.0	0.285406	0.695062
     29382.43	0.12357	1744361.0	1311391.0	654516.0	0.285300	0.694948
     29382.93	0.15026	2037949.0	1531770.0	765176.0	0.285520	0.694073
     29383.42	0.13597	1886768.0	1418235.0	708565.0	0.285452	0.693927
     29383.92	0.12301	1697504.0	1276196.0	637994.0	0.285275	0.693310
     29384.41	0.11443	1597819.0	1201300.0	600791.0	0.285235	0.692912
     29384.91	0.13462	1870539.0	1406080.0	703676.0	0.285421	0.692243
     29385.41	0.12997	1798122.0	1352174.0	676443.0	0.285029	0.692621
     29385.90	0.13357	1843371.0	1386068.0	694106.0	0.285125	0.691602
     29386.40	0.12025	1672422.0	1257706.0	630249.0	0.284983	0.690930
     29386.90	0.13316	1870203.0	1406413.0	705187.0	0.285004	0.690335
     29387.39	0.13438	1876528.0	1410989.0	707792.0	0.285132	0.689896
     29387.89	0.12118	1691969.0	1272336.0	638488.0	0.285038	0.689507
     29388.39	0.12989	1807945.0	1359594.0	682740.0	0.285005	0.688827
     29388.88	0.12987	1750442.0	1316254.0	661025.0	0.285079	0.688753
     29389.38	0.13007	1806659.0	1358587.0	682903.0	0.285034	0.687848
     29389.88	0.13866	1910486.0	1436892.0	722312.0	0.284875	0.687781
     29390.37	0.13263	1815657.0	1365644.0	686857.0	0.284821	0.687255
     29390.87	0.13953	1972641.0	1483182.0	746226.0	0.285183	0.686917
     29391.37	0.13482	1885572.0	1418377.0	713755.0	0.284718	0.686729
     29391.87	0.12838	1805030.0	1357332.0	683570.0	0.285056	0.685947
     29392.36	0.11432	1628993.0	1225478.0	617151.0	0.284631	0.685973
     29392.86	0.12655	1779059.0	1338115.0	674516.0	0.284823	0.685022
     29393.36	0.12956	1831769.0	1377746.0	694655.0	0.284833	0.684789
     29393.85	0.13175	1851414.0	1392373.0	702274.0	0.284940	0.684441
     29394.35	0.12199	1703727.0	1281391.0	646720.0	0.284872	0.683788
     29394.85	0.12211	1698739.0	1277963.0	644743.0	0.284619	0.684171
     29395.34	0.12642	1799339.0	1353626.0	683325.0	0.284632	0.683572
     29395.84	0.12073	1709511.0	1285796.0	649470.0	0.284829	0.682977
     29396.34	0.12552	1751679.0	1317595.0	665844.0	0.284767	0.682508
     29396.83	0.12260	1702603.0	1280734.0	647772.0	0.284725	0.681650
     29397.33	0.12949	1814259.0	1364767.0	689915.0	0.284693	0.682171
     29397.83	0.11774	1656597.0	1245620.0	630012.0	0.285132	0.681650
     29398.33	0.12900	1806892.0	1359203.0	687727.0	0.284710	0.681262
     29398.82	0.12144	1679977.0	1264271.0	639713.0	0.284284	0.681231
     29399.32	0.12085	1701753.0	1280245.0	647719.0	0.284607	0.681350
     29399.82	0.11707	1653773.0	1244286.0	629864.0	0.284497	0.680813
     29400.31	0.11766	1678409.0	1262986.0	639200.0	0.284368	0.681017
     29400.81	0.12250	1705575.0	1283015.0	649892.0	0.284690	0.680162
     29401.31	0.12124	1694380.0	1274917.0	645848.0	0.284436	0.680072
     29401.80	0.11909	1690585.0	1271963.0	644477.0	0.284513	0.679878
     29402.30	0.12057	1684973.0	1267706.0	642134.0	0.284541	0.680167
     29402.80	0.12877	1803680.0	1357271.0	687867.0	0.284353	0.679636
     29403.30	0.14225	1964528.0	1478497.0	749537.0	0.284226	0.679326
     29403.79	0.13027	1839259.0	1384019.0	701402.0	0.284371	0.679666
     29404.29	0.12011	1666515.0	1254190.0	635652.0	0.284245	0.679594
     29404.79	0.12877	1805032.0	1358398.0	688347.0	0.284272	0.679768
     29405.29	0.12453	1712551.0	1288852.0	653484.0	0.284232	0.679189
     29405.78	0.12710	1732690.0	1304201.0	661224.0	0.284085	0.679253
     29406.28	0.12151	1685356.0	1268894.0	643041.0	0.283831	0.679692
     29406.78	0.13520	1861647.0	1401637.0	710499.0	0.283821	0.679429
     29407.27	0.12288	1691027.0	1272752.0	645069.0	0.284155	0.679579
     29407.77	0.11678	1629394.0	1226476.0	621583.0	0.284063	0.679631
     29408.27	0.12879	1829147.0	1376783.0	698074.0	0.284100	0.679180
     29408.77	0.12356	1746263.0	1314608.0	666093.0	0.283940	0.679865
     29409.26	0.12643	1790878.0	1348061.0	683225.0	0.284039	0.679598
     29409.76	0.13563	1873380.0	1410167.0	714857.0	0.284036	0.679381
     29410.26	0.12833	1853501.0	1394781.0	707020.0	0.284339	0.679434
     29410.76	0.13616	1897819.0	1428848.0	724303.0	0.283837	0.679414
     29411.25	0.12993	1817018.0	1368029.0	693011.0	0.283826	0.680080
     29411.75	0.12836	1803661.0	1358380.0	688487.0	0.283526	0.679552
     29412.25	0.12645	1750143.0	1317744.0	667833.0	0.283776	0.679638
     29412.75	0.12696	1776076.0	1337573.0	677494.0	0.283550	0.680211
     29413.24	0.12289	1704595.0	1283539.0	650411.0	0.283706	0.679772
     29413.74	0.12935	1810736.0	1363561.0	690618.0	0.283634	0.680268
     29414.24	0.12999	1799428.0	1355093.0	686448.0	0.283599	0.680095
     29414.74	0.12016	1654076.0	1245733.0	630968.0	0.283518	0.680224
     29415.23	0.12862	1784771.0	1344245.0	680754.0	0.283458	0.680387
     29415.73	0.14376	1965110.0	1479967.0	749504.0	0.283528	0.680363
     29416.23	0.11215	1576730.0	1187684.0	601071.0	0.283348	0.681047
     29416.73	0.11298	1580508.0	1190518.0	602509.0	0.283358	0.681041
     29417.22	0.12067	1669962.0	1258230.0	636747.0	0.283095	0.681089
     29417.72	0.12211	1717112.0	1293724.0	654607.0	0.283119	0.681245
     29418.22	0.11649	1662303.0	1251874.0	633590.0	0.283562	0.680995
     29418.72	0.12287	1720968.0	1296343.0	656267.0	0.283340	0.680735
     29419.22	0.11421	1583806.0	1193255.0	603927.0	0.283146	0.680987
     29419.71	0.12474	1755774.0	1322890.0	669110.0	0.283091	0.681626
     29420.21	0.10825	1514756.0	1141119.0	577197.0	0.283245	0.681581
     29420.71	0.11541	1610977.0	1213961.0	614072.0	0.282952	0.681532
     29421.21	0.11712	1658846.0	1249796.0	632317.0	0.283142	0.681345
     29421.70	0.12318	1701201.0	1281919.0	648033.0	0.282976	0.682172
     29422.20	0.11857	1667174.0	1256173.0	635233.0	0.283060	0.681833
     29422.70	0.12531	1714122.0	1291682.0	653015.0	0.282956	0.682100
     29423.20	0.13867	1927253.0	1452572.0	734385.0	0.282760	0.682058
     29423.70	0.14977	2038676.0	1536567.0	777005.0	0.282750	0.681859
     29424.19	0.11147	1548788.0	1167405.0	589845.0	0.282689	0.682679
     29424.69	0.13103	1817971.0	1369918.0	692701.0	0.282970	0.681908
     29425.19	0.12955	1822524.0	1373796.0	694450.0	0.282645	0.682213
     29425.69	0.11448	1556206.0	1173429.0	593099.0	0.282321	0.682324
     29426.19	0.14827	2024903.0	1526615.0	772127.0	0.282469	0.681659
     29426.68	0.11596	1575326.0	1187533.0	600192.0	0.282584	0.682384
     29427.18	0.12994	1785496.0	1345851.0	680443.0	0.282670	0.682038
     29427.68	0.14883	2049495.0	1545403.0	781387.0	0.282309	0.681969
     29428.18	0.11785	1612299.0	1215708.0	614498.0	0.282334	0.682276
     29428.68	0.12013	1621577.0	1222454.0	618263.0	0.282539	0.681702
     29429.17	0.13061	1803822.0	1360157.0	687990.0	0.282308	0.681581
     29429.67	0.12604	1740425.0	1312101.0	663419.0	0.282500	0.681978
     29430.17	0.13420	1821888.0	1373851.0	694790.0	0.282256	0.681763
     29430.67	0.14227	1920894.0	1448788.0	733084.0	0.282063	0.681222
     29431.17	0.12794	1735569.0	1308751.0	662200.0	0.282262	0.681261
     29431.66	0.14172	1946483.0	1467645.0	742603.0	0.282365	0.681253
     29432.16	0.11798	1618549.0	1220350.0	617765.0	0.282392	0.680785
     29432.66	0.13617	1871066.0	1410675.0	714159.0	0.282440	0.680718
     29433.16	0.12439	1705264.0	1285878.0	651023.0	0.282278	0.680652
     29433.66	0.12626	1683962.0	1270289.0	643048.0	0.281905	0.680780
     29434.16	0.12103	1643671.0	1239834.0	627780.0	0.281955	0.680543
     29434.65	0.13263	1782176.0	1343901.0	680582.0	0.282259	0.680384
     29435.15	0.12588	1739934.0	1312166.0	664958.0	0.282168	0.679711
     29435.65	0.11830	1600287.0	1206876.0	611486.0	0.282148	0.679898
     29436.15	0.12572	1713721.0	1292746.0	655341.0	0.281898	0.679368
     29436.65	0.12142	1644412.0	1239939.0	628622.0	0.282321	0.679287
     29437.15	0.12586	1737576.0	1310585.0	664205.0	0.282017	0.679638
     29437.64	0.13163	1787639.0	1348173.0	683831.0	0.282145	0.678795
     29438.14	0.11004	1472087.0	1110681.0	563659.0	0.281708	0.678279
     29438.64	0.12784	1751705.0	1321420.0	670621.0	0.281883	0.678258
     29439.14	0.12097	1670549.0	1260398.0	639909.0	0.281725	0.677857
     29439.64	0.11154	1515001.0	1142912.0	580224.0	0.281837	0.677920
     29440.14	0.12992	1793487.0	1352676.0	686938.0	0.282077	0.677596
     29440.63	0.11462	1571168.0	1184716.0	601755.0	0.282316	0.677408
     29441.13	0.11723	1612889.0	1216715.0	618140.0	0.281872	0.677195
     29441.63	0.12340	1672569.0	1261739.0	641685.0	0.281870	0.676149
     29442.13	0.13385	1849422.0	1395280.0	709573.0	0.281778	0.676187
     29442.63	0.11912	1583612.0	1195086.0	608189.0	0.281490	0.675488
     29443.13	0.13112	1760199.0	1328154.0	675515.0	0.281637	0.676070
     29443.63	0.12485	1683423.0	1270419.0	646736.0	0.281482	0.675164
     29444.12	0.12797	1729676.0	1305075.0	664573.0	0.281674	0.674871
     29444.62	0.13198	1783118.0	1345605.0	685512.0	0.281520	0.674433
     29445.12	0.12374	1644004.0	1240504.0	632361.0	0.281617	0.673813
     29445.62	0.13111	1800745.0	1358696.0	692528.0	0.281675	0.673932
     29446.12	0.12286	1669712.0	1260063.0	642525.0	0.281489	0.673511
     29446.62	0.11601	1554307.0	1173184.0	598321.0	0.281308	0.673349
     29447.12	0.12841	1739510.0	1312954.0	670072.0	0.281324	0.672650
     29447.62	0.12822	1721689.0	1299433.0	663058.0	0.281378	0.672821
     29448.11	0.12095	1638802.0	1237175.0	631459.0	0.281135	0.672553
     29448.61	0.12348	1647034.0	1243353.0	635190.0	0.281164	0.671643
     29449.11	0.13920	1848055.0	1394784.0	712728.0	0.281394	0.671395
     29449.61	0.12051	1623703.0	1225865.0	626617.0	0.281063	0.671066
     29450.11	0.13481	1843457.0	1391423.0	711657.0	0.281316	0.670486
     29450.61	0.13392	1778359.0	1342523.0	686801.0	0.281140	0.670261
     29451.11	0.12361	1637543.0	1236211.0	632910.0	0.281146	0.669478
     29451.61	0.13352	1768383.0	1335352.0	683973.0	0.280871	0.669032
     29452.10	0.12155	1663559.0	1256174.0	643485.0	0.280889	0.668927
     29452.60	0.13658	1807189.0	1364668.0	699444.0	0.280861	0.668381
     29453.10	0.12520	1658850.0	1252829.0	642519.0	0.280720	0.667763
     29453.60	0.12067	1628722.0	1229664.0	630684.0	0.281055	0.667691
     29454.10	0.12817	1703677.0	1286621.0	659872.0	0.280769	0.667729
     29454.60	0.11898	1624795.0	1226924.0	629755.0	0.280871	0.666935
     29455.10	0.13969	1912459.0	1444656.0	741877.0	0.280519	0.666443
     29455.60	0.11667	1610542.0	1216610.0	624868.0	0.280502	0.666283
     29456.10	0.12239	1664100.0	1257105.0	645868.0	0.280473	0.665972
     29456.59	0.12814	1723691.0	1302091.0	669268.0	0.280496	0.665542
     29457.09	0.11009	1500430.0	1133198.0	582869.0	0.280708	0.664837
     29457.59	0.12497	1720661.0	1299924.0	668917.0	0.280403	0.664401
     29458.09	0.12241	1654742.0	1249930.0	643385.0	0.280558	0.664100
     29458.59	0.12584	1728008.0	1305321.0	671852.0	0.280520	0.664166
     29459.09	0.11425	1558244.0	1177074.0	606410.0	0.280528	0.663231
     29459.59	0.10604	1445738.0	1092389.0	563059.0	0.280253	0.662738
     29460.09	0.10820	1449966.0	1095611.0	564971.0	0.280228	0.662293
     29460.59	0.12569	1699548.0	1284334.0	662241.0	0.280122	0.662366
     29461.09	0.11266	1521302.0	1149313.0	592672.0	0.280402	0.662279
     29461.59	0.12357	1642568.0	1241395.0	640385.0	0.280025	0.661921
     29462.09	0.12968	1736568.0	1312603.0	677660.0	0.279899	0.661122
     29462.58	0.13143	1806523.0	1365390.0	704834.0	0.279964	0.661233
     29463.08	0.14312	1951612.0	1475114.0	761920.0	0.279920	0.660649
     29463.58	0.12190	1650805.0	1247862.0	644656.0	0.279831	0.660470
     29464.08	0.11672	1590887.0	1202589.0	621526.0	0.279815	0.660054
     29464.58	0.12842	1711900.0	1294282.0	669000.0	0.279648	0.659927
     29465.08	0.13038	1749390.0	1322795.0	683795.0	0.279520	0.659844
     29465.58	0.12832	1730966.0	1308719.0	676778.0	0.279631	0.659461
     29466.08	0.13255	1793805.0	1356387.0	701969.0	0.279515	0.658691
     29466.58	0.15330	2016761.0	1524999.0	789409.0	0.279499	0.658464
     29467.08	0.16782	2210595.0	1671688.0	865803.0	0.279428	0.657932
     29467.58	0.099725	1307474.0	988937.0	512059.0	0.279222	0.658191
     29468.08	0.090762	1233042.0	932690.0	482933.0	0.279167	0.658195
     29468.58	0.13321	1799459.0	1360638.0	704944.0	0.279532	0.657591
     29469.08	0.12880	1717696.0	1299425.0	673451.0	0.279062	0.657262
     29469.58	0.13723	1850354.0	1399421.0	725344.0	0.279318	0.657168
     29470.07	0.14124	1884759.0	1425818.0	739017.0	0.279054	0.657180
     29470.57	0.13805	1833590.0	1386907.0	718931.0	0.279200	0.657066
     29471.07	0.14556	1940800.0	1468120.0	761424.0	0.279118	0.656548
     29471.57	0.10555	1406138.0	1063899.0	551760.0	0.278906	0.656583
     29472.07	0.13314	1809219.0	1368779.0	709939.0	0.278976	0.656495
     29472.57	0.12522	1691458.0	1279979.0	664072.0	0.278747	0.656208
     29473.07	0.12468	1645836.0	1245347.0	646181.0	0.278834	0.656090
     29473.57	0.12930	1679612.0	1271360.0	659935.0	0.278476	0.655701
     29474.07	0.12798	1718101.0	1300178.0	675093.0	0.278718	0.655406
     29474.57	0.14171	1880547.0	1423116.0	738879.0	0.278714	0.655470
     29475.07	0.12685	1636955.0	1238954.0	643238.0	0.278570	0.655508
     29475.57	0.10289	1362308.0	1031005.0	535168.0	0.278646	0.655709
     29476.07	0.12212	1629771.0	1233684.0	640615.0	0.278435	0.655331
     29476.57	0.12786	1671524.0	1265279.0	656934.0	0.278443	0.655464
     29477.07	0.13169	1739803.0	1316924.0	684263.0	0.278473	0.654712
     29477.57	0.11041	1452684.0	1099593.0	571365.0	0.278473	0.654667
     29478.07	0.13526	1800100.0	1363115.0	708275.0	0.278070	0.654695
     29478.57	0.12557	1699277.0	1286759.0	668459.0	0.278076	0.654907
     29479.07	0.11131	1481806.0	1121806.0	582775.0	0.278322	0.654894
     29479.57	0.11346	1467724.0	1111473.0	577418.0	0.278027	0.654875
     29480.07	0.12680	1697625.0	1285410.0	667811.0	0.278152	0.654828
     29480.57	0.12079	1610377.0	1219396.0	633403.0	0.278113	0.655004
     29481.07	0.13201	1752667.0	1327361.0	689671.0	0.277946	0.654733
     29481.57	0.11150	1465973.0	1110272.0	576848.0	0.277914	0.654782
     29482.07	0.13651	1825236.0	1381961.0	718043.0	0.278206	0.654729
     29482.57	0.12974	1748472.0	1324109.0	687765.0	0.278002	0.655048
     29483.07	0.13336	1769298.0	1340479.0	696749.0	0.277556	0.654357
     29483.57	0.11797	1575637.0	1193518.0	620124.0	0.277754	0.654741
     29484.07	0.12617	1710417.0	1295594.0	673168.0	0.277768	0.654730
     29484.57	0.12388	1635485.0	1238829.0	643908.0	0.277773	0.654366
     29485.07	0.13724	1779002.0	1348137.0	700725.0	0.277329	0.654363
     29485.57	0.12150	1599752.0	1212475.0	630021.0	0.277185	0.654666
     29486.07	0.12458	1637409.0	1240642.0	644764.0	0.277486	0.654500
     29486.57	0.14022	1889383.0	1431305.0	743518.0	0.277664	0.654949
     29487.07	0.12110	1600266.0	1212350.0	630042.0	0.277609	0.654529
     29487.57	0.11055	1455144.0	1102736.0	572871.0	0.277311	0.654889
     29488.07	0.12876	1722532.0	1305574.0	678240.0	0.277153	0.654897
     29488.57	0.12734	1667348.0	1263742.0	656525.0	0.277157	0.654872
     29489.07	0.13109	1727137.0	1308735.0	680184.0	0.277404	0.654453
     29489.57	0.13056	1766697.0	1338952.0	695592.0	0.277224	0.654879
     29490.07	0.16559	2233482.0	1693069.0	879490.0	0.277019	0.654956
     29490.57	0.12349	1610453.0	1220526.0	633940.0	0.277234	0.655083
     29491.07	0.099949	1313355.0	995680.0	517392.0	0.276914	0.654625
     29491.57	0.11388	1485463.0	1126249.0	585035.0	0.276834	0.654976
     29492.07	0.13478	1811140.0	1373150.0	713484.0	0.276849	0.654703
     29492.57	0.12239	1645665.0	1247660.0	647898.0	0.276875	0.655292
     29493.07	0.13605	1808263.0	1370860.0	712163.0	0.276928	0.654887
     29493.57	0.13144	1725662.0	1308748.0	679396.0	0.276540	0.655622
     29494.07	0.12383	1669249.0	1265594.0	657437.0	0.276832	0.654948
     29494.57	0.11812	1583472.0	1200682.0	623621.0	0.276730	0.655102
     29495.07	0.12024	1593523.0	1208379.0	627807.0	0.276667	0.654802
     29495.57	0.12570	1660690.0	1259388.0	654353.0	0.276607	0.654734
     29496.07	0.12217	1594606.0	1209296.0	628372.0	0.276588	0.654661
     29496.57	0.12101	1583719.0	1201244.0	623720.0	0.276418	0.655411
     29497.07	0.11649	1531508.0	1161748.0	603153.0	0.276327	0.655510
     29497.57	0.14477	1913871.0	1451864.0	754467.0	0.276280	0.654592
     29498.07	0.11502	1532229.0	1162306.0	603750.0	0.276318	0.655001
     29498.57	0.10171	1358295.0	1030330.0	535138.0	0.276351	0.655110
     29499.07	0.10030	1321520.0	1002623.0	520793.0	0.276163	0.655022
     29499.57	0.11702	1542028.0	1169867.0	607926.0	0.276208	0.654592
     29500.07	0.12317	1603856.0	1217021.0	632126.0	0.276005	0.655073
     29500.58	0.12313	1639222.0	1243909.0	646382.0	0.275963	0.654623
     29501.08	0.12243	1648601.0	1251173.0	650196.0	0.275846	0.654563
     29501.58	0.12089	1656597.0	1256969.0	652965.0	0.276062	0.654935
     29502.08	0.13645	1817032.0	1378556.0	716266.0	0.276168	0.654740
     29502.58	0.13059	1715851.0	1301988.0	677011.0	0.276017	0.653960
     29503.08	0.11482	1512244.0	1147715.0	596425.0	0.275822	0.654575
     29503.58	0.13831	1803169.0	1368152.0	711375.0	0.276085	0.654016
     29504.08	0.13206	1749050.0	1327721.0	690025.0	0.275609	0.654491
     29504.58	0.13095	1747960.0	1327227.0	689714.0	0.275358	0.654570
     29505.08	0.13582	1825695.0	1385907.0	720168.0	0.275606	0.654626
     29505.58	0.13846	1857059.0	1409753.0	732881.0	0.275580	0.654186
     29506.08	0.15379	2032295.0	1542629.0	802015.0	0.275678	0.654116
     29506.58	0.092121	1219839.0	926515.0	481556.0	0.275044	0.654408
     29507.08	0.13601	1821297.0	1382653.0	719091.0	0.275545	0.653771
     29507.58	0.12251	1628357.0	1235937.0	642721.0	0.275742	0.653874
     29508.09	0.12549	1703860.0	1293333.0	672584.0	0.275674	0.653851
     29508.59	0.15196	2017592.0	1531469.0	796914.0	0.275677	0.653236
     29509.09	0.15352	2020671.0	1534246.0	798217.0	0.275391	0.653414
     29509.59	0.20228	2649130.0	2011159.0	1046715.0	0.275520	0.653054
     29510.09	0.087734	1193268.0	906020.0	471641.0	0.275390	0.652843
     29510.59	0.066165	889805.0	675618.0	351758.0	0.275375	0.652684
     29511.09	0.12682	1685273.0	1279699.0	666435.0	0.275303	0.652438
     29511.59	0.13298	1821760.0	1383266.0	720158.0	0.275356	0.652732
     29512.09	0.12853	1740401.0	1321198.0	687993.0	0.275577	0.652516
     29512.59	0.12923	1752958.0	1330996.0	693359.0	0.275377	0.652135
     29513.09	0.11992	1569800.0	1192091.0	621110.0	0.275239	0.651956
     29513.60	0.13218	1747959.0	1327251.0	691832.0	0.275339	0.651522
     29514.10	0.11667	1565178.0	1188637.0	619653.0	0.275192	0.651403
     29514.60	0.12916	1674883.0	1271934.0	663010.0	0.275205	0.651504
     29515.10	0.12061	1608223.0	1221313.0	636773.0	0.275203	0.651269
     29515.60	0.13076	1738479.0	1320324.0	688672.0	0.275133	0.650867
     29516.10	0.12403	1628887.0	1237202.0	645456.0	0.275045	0.650651
     29516.60	0.11963	1580227.0	1200038.0	625966.0	0.275215	0.650812
     29517.10	0.11674	1530680.0	1162456.0	606188.0	0.275177	0.651100
     29517.60	0.12510	1632634.0	1240109.0	647505.0	0.274995	0.649828
     29518.10	0.12151	1615388.0	1227006.0	640644.0	0.274998	0.649858
     29518.61	0.11705	1568059.0	1191137.0	621891.0	0.274930	0.649899
     29519.11	0.12870	1700843.0	1291730.0	674807.0	0.275142	0.649311
     29519.61	0.11568	1555860.0	1181599.0	617201.0	0.275160	0.649429
     29520.11	0.12691	1746507.0	1326611.0	693164.0	0.274990	0.649116
     29520.61	0.12760	1722334.0	1308027.0	683843.0	0.275160	0.648547
     29521.11	0.12503	1674311.0	1272439.0	665142.0	0.274466	0.648690
     29521.61	0.12947	1711450.0	1300809.0	680173.0	0.274355	0.648394
     29522.11	0.12999	1740107.0	1321777.0	691119.0	0.274970	0.648420
     29522.62	0.12958	1734406.0	1317671.0	689320.0	0.274799	0.647915
     29523.12	0.11843	1558031.0	1184014.0	619683.0	0.274512	0.647458
     29523.62	0.13572	1800451.0	1368186.0	716102.0	0.274551	0.647418
     29524.12	0.13546	1832499.0	1392572.0	729251.0	0.274528	0.646890
     29524.62	0.11849	1587211.0	1205752.0	631999.0	0.274875	0.645971
     29525.12	0.11369	1513903.0	1150469.0	602658.0	0.274521	0.646575
     29525.62	0.12153	1647308.0	1251718.0	656028.0	0.274625	0.646069
     29526.12	0.12318	1659294.0	1261461.0	661674.0	0.274122	0.645253
     29526.63	0.12773	1743930.0	1325183.0	694934.0	0.274591	0.645489
     29527.13	0.12704	1735046.0	1318585.0	691538.0	0.274475	0.645396
     29527.63	0.13087	1756245.0	1335026.0	700555.0	0.274227	0.644833
     29528.13	0.12884	1759296.0	1336876.0	701674.0	0.274578	0.644622
     29528.63	0.13337	1835318.0	1394489.0	732332.0	0.274690	0.644049
     29529.13	0.12769	1753643.0	1332623.0	699981.0	0.274546	0.643851
     29529.64	0.12826	1751790.0	1331283.0	699309.0	0.274495	0.643806
     29530.14	0.13442	1863170.0	1416372.0	744212.0	0.274181	0.643528
     29530.64	0.12452	1730812.0	1315695.0	691530.0	0.274226	0.643214
     29531.14	0.12402	1690611.0	1285181.0	675657.0	0.274190	0.642969
     29531.64	0.12496	1695161.0	1288440.0	677796.0	0.274346	0.642341
     29532.14	0.12874	1766198.0	1342887.0	706330.0	0.274007	0.642495
     29532.64	0.12936	1772815.0	1347538.0	709121.0	0.274289	0.642008
     29533.15	0.12533	1713098.0	1302250.0	685789.0	0.274210	0.641279
     29533.65	0.12089	1652005.0	1256054.0	661516.0	0.274015	0.641196
     29534.15	0.13076	1792477.0	1362882.0	717659.0	0.273997	0.641362
     29534.65	0.11696	1613978.0	1226973.0	646451.0	0.274152	0.640808
     29535.15	0.11960	1628259.0	1237947.0	652602.0	0.274057	0.640242
     29535.65	0.12214	1652637.0	1256985.0	662674.0	0.273656	0.640188
     29536.16	0.11573	1588942.0	1208099.0	637028.0	0.274020	0.639990
     29536.66	0.11414	1560664.0	1186602.0	625762.0	0.274018	0.639879
     29537.16	0.10678	1458504.0	1109191.0	585375.0	0.273780	0.639134
     29537.66	0.12531	1729446.0	1315118.0	694192.0	0.273875	0.638933
     29538.16	0.12097	1653168.0	1257170.0	663731.0	0.273830	0.638741
     29538.67	0.10622	1469448.0	1117791.0	590193.0	0.273532	0.638660
     29539.17	0.12982	1774912.0	1349553.0	712912.0	0.273977	0.638171
     29539.67	0.11546	1578575.0	1200467.0	634451.0	0.273812	0.637706
     29540.17	0.13335	1858594.0	1413667.0	747003.0	0.273633	0.637873
     29540.67	0.12065	1676285.0	1274907.0	674027.0	0.273707	0.637358
     29541.17	0.13180	1814371.0	1379883.0	729900.0	0.273740	0.636846
     29541.68	0.13326	1810878.0	1377093.0	728313.0	0.273837	0.636999
     29542.18	0.12602	1712957.0	1303182.0	689456.0	0.273412	0.636661
     29542.68	0.13772	1918094.0	1458618.0	772310.0	0.273843	0.635859
     29543.18	0.12729	1748371.0	1330210.0	704256.0	0.273348	0.635950
     29543.68	0.13653	1874682.0	1426406.0	755365.0	0.273281	0.635712
     29544.19	0.14878	2025460.0	1541121.0	816111.0	0.273287	0.635715
     29544.69	0.10647	1447561.0	1101317.0	583369.0	0.273373	0.635442
     29545.19	0.10256	1371834.0	1043841.0	553356.0	0.273241	0.634661
     29545.69	0.15050	2001344.0	1522855.0	807339.0	0.273232	0.634598
     29546.19	0.12282	1667905.0	1269243.0	672937.0	0.273148	0.634524
     29546.70	0.13512	1835355.0	1396284.0	739727.0	0.273424	0.635289
     29547.20	0.12901	1732974.0	1318442.0	699089.0	0.273388	0.634428
     29547.70	0.16690	2260745.0	1719776.0	912761.0	0.273500	0.633475
     29548.20	0.12743	1695320.0	1290445.0	684620.0	0.272884	0.633878
     29548.71	0.11123	1501254.0	1142611.0	606162.0	0.272985	0.633924
     29549.21	0.12936	1758142.0	1337773.0	710030.0	0.273251	0.633454
     29549.71	0.12847	1763655.0	1342097.0	712574.0	0.273155	0.633105
     29550.21	0.13005	1768597.0	1346244.0	714813.0	0.272868	0.633053
     29550.71	0.12376	1662222.0	1265301.0	672158.0	0.272845	0.632572
     29551.22	0.13006	1746582.0	1329385.0	706002.0	0.272944	0.632854
     29551.72	0.12620	1728487.0	1315448.0	698909.0	0.273069	0.632412
     29552.22	0.12463	1684892.0	1282736.0	681308.0	0.272706	0.632736
     29552.72	0.12033	1601036.0	1218744.0	647751.0	0.272830	0.632070
     29553.23	0.13057	1775303.0	1351785.0	718503.0	0.272545	0.632011
     29553.73	0.12532	1715824.0	1306233.0	694251.0	0.272746	0.632069
     29554.23	0.12860	1745984.0	1329125.0	706936.0	0.272797	0.631336
     29554.73	0.12151	1649655.0	1256329.0	667766.0	0.272372	0.632011
     29555.24	0.12666	1741929.0	1326153.0	705402.0	0.272711	0.631270
     29555.74	0.12668	1722860.0	1311963.0	697668.0	0.272461	0.631536
     29556.24	0.11146	1493887.0	1137716.0	605369.0	0.272359	0.630940
     29556.74	0.12709	1753318.0	1335516.0	710217.0	0.272192	0.631502
     29557.24	0.11249	1554737.0	1184240.0	629993.0	0.272205	0.631148
     29557.75	0.11933	1614580.0	1229656.0	654342.0	0.272340	0.630860
     29558.25	0.12921	1772683.0	1350479.0	718682.0	0.272035	0.630796
     29558.75	0.11405	1559316.0	1187762.0	632205.0	0.272176	0.630612
     29559.26	0.12873	1771741.0	1349366.0	718310.0	0.272328	0.630489
     29559.76	0.13824	1877231.0	1430002.0	761050.0	0.272122	0.630732
     29560.26	0.11576	1550640.0	1181508.0	629175.0	0.271876	0.630137
     29560.76	0.12958	1763197.0	1343103.0	715078.0	0.272146	0.630346
     29561.27	0.12963	1786547.0	1361041.0	724900.0	0.272035	0.629971
     29561.77	0.12538	1722946.0	1312769.0	699083.0	0.271897	0.630124
     29562.27	0.13795	1905434.0	1451545.0	772996.0	0.272081	0.630110
     29562.77	0.12296	1665764.0	1269138.0	675724.0	0.271946	0.630309
     29563.28	0.15993	2171012.0	1654436.0	881196.0	0.271733	0.629935
     29563.78	0.14190	1946262.0	1482972.0	790196.0	0.271862	0.629522
     29564.28	0.096781	1318390.0	1004549.0	535227.0	0.271873	0.629603
     29564.78	0.095143	1304320.0	993661.0	529374.0	0.272041	0.629701
     29565.29	0.11991	1655632.0	1261484.0	672249.0	0.271894	0.629415
     29565.79	0.13040	1761604.0	1342211.0	715330.0	0.271907	0.629330
     29566.29	0.12406	1662032.0	1266644.0	675203.0	0.271670	0.629113
     29566.80	0.13501	1835923.0	1399205.0	745693.0	0.271643	0.629346
     29567.30	0.18502	2497030.0	1903015.0	1014258.0	0.271663	0.629282
     29567.80	0.098770	1328766.0	1012883.0	540071.0	0.271450	0.628855
     29568.30	0.091296	1242277.0	947073.0	504565.0	0.271325	0.629680
     29568.81	0.14325	1948193.0	1484938.0	791737.0	0.271529	0.628899
     29569.31	0.12184	1644581.0	1253572.0	668249.0	0.271489	0.629091
     29569.81	0.13332	1792221.0	1366614.0	728438.0	0.271119	0.629189
     29570.32	0.12271	1649035.0	1257425.0	670600.0	0.271124	0.628648
     29570.82	0.13561	1817896.0	1386712.0	739269.0	0.270744	0.629029
     29571.32	0.12349	1664542.0	1268874.0	676542.0	0.271420	0.628891
     29571.82	0.13653	1858645.0	1417074.0	755567.0	0.271254	0.628881
     29572.33	0.10769	1483427.0	1130800.0	602942.0	0.271430	0.628860
     29572.83	0.11735	1563567.0	1192553.0	636200.0	0.270873	0.628339
     29573.33	0.13480	1828933.0	1394399.0	743651.0	0.271269	0.628647
     29573.84	0.12264	1665996.0	1270279.0	677553.0	0.271187	0.628504
     29574.34	0.12478	1720682.0	1312075.0	699705.0	0.271111	0.628706
     29574.84	0.11845	1629421.0	1242889.0	662818.0	0.270786	0.628693
     29575.35	0.11629	1593236.0	1214991.0	648085.0	0.271030	0.628470
     29575.85	0.12600	1695144.0	1292758.0	689573.0	0.270990	0.628461
     29576.35	0.10917	1497565.0	1142123.0	609208.0	0.270952	0.628484
     29576.85	0.12238	1647679.0	1256784.0	670692.0	0.270812	0.628001
     29577.36	0.11022	1483690.0	1131839.0	604223.0	0.270688	0.627656
     29577.86	0.11967	1629840.0	1243447.0	663463.0	0.270594	0.628170
     29578.36	0.11706	1573901.0	1201086.0	640759.0	0.270331	0.628328
     29578.87	0.12089	1629274.0	1242930.0	663211.0	0.270663	0.628134
     29579.37	0.12596	1731790.0	1321088.0	705207.0	0.270700	0.627720
     29579.87	0.14317	1924506.0	1468287.0	783848.0	0.270573	0.627637
     29580.38	0.11377	1570381.0	1198118.0	639666.0	0.270566	0.627561
     29580.88	0.12302	1672985.0	1276650.0	681463.0	0.270370	0.627753
     29581.38	0.12425	1689027.0	1288868.0	687876.0	0.270388	0.627911
     29581.89	0.12714	1714838.0	1308542.0	698642.0	0.270405	0.627530
     29582.39	0.13430	1845172.0	1407680.0	751471.0	0.270630	0.627666
     29582.89	0.12432	1691637.0	1291148.0	689155.0	0.270165	0.627821
     29583.40	0.14305	1969821.0	1503075.0	802387.0	0.270430	0.627677
     29583.90	0.13052	1775479.0	1354824.0	723140.0	0.270399	0.627824
     29584.40	0.11979	1619152.0	1235759.0	659866.0	0.270217	0.627404
     29584.91	0.11971	1627894.0	1243059.0	663693.0	0.269712	0.627511
     29585.41	0.12693	1706205.0	1302375.0	695755.0	0.270082	0.626947
     29585.91	0.12960	1755277.0	1339808.0	715840.0	0.270100	0.626825
     29586.42	0.13116	1817106.0	1386789.0	740784.0	0.270254	0.627037
     29586.92	0.13511	1862119.0	1421583.0	759331.0	0.269944	0.627089
     29587.42	0.14159	1934481.0	1477000.0	789071.0	0.269826	0.626912
     29587.93	0.14991	2048925.0	1564480.0	835539.0	0.269762	0.627232
     29588.43	0.11952	1634417.0	1247935.0	666853.0	0.269796	0.626676
     29588.93	0.12921	1758735.0	1342649.0	717593.0	0.269950	0.626497
     29589.44	0.12158	1677248.0	1280601.0	684459.0	0.269825	0.626456
     29589.94	0.13024	1762103.0	1345398.0	719418.0	0.269818	0.626003
     29590.45	0.12938	1733114.0	1323449.0	707541.0	0.269679	0.626201
     29590.95	0.14364	1951485.0	1490322.0	796700.0	0.269598	0.626269
     29591.45	0.11295	1558513.0	1189811.0	635875.0	0.269938	0.626548
     29591.96	0.12528	1711302.0	1306574.0	698622.0	0.269846	0.626054
     29592.46	0.11506	1577353.0	1204602.0	644284.0	0.269599	0.625765
     29592.96	0.12739	1740771.0	1329772.0	710893.0	0.269321	0.626241
     29593.47	0.12967	1770985.0	1352605.0	723540.0	0.269504	0.625632
     29593.97	0.12677	1742593.0	1330757.0	711826.0	0.269626	0.625670
     29594.48	0.12434	1707087.0	1303858.0	697640.0	0.269461	0.625380
     29594.98	0.12838	1729773.0	1321333.0	707168.0	0.269349	0.625128
     29595.48	0.12565	1718749.0	1312879.0	702659.0	0.269374	0.625106
     29595.99	0.11436	1584623.0	1210363.0	647978.0	0.269426	0.624819
     29596.49	0.12379	1684582.0	1286759.0	688399.0	0.269391	0.625513
     29596.99	0.11763	1600695.0	1222869.0	654743.0	0.269238	0.624712
     29597.50	0.12578	1698205.0	1297744.0	694690.0	0.268944	0.624917
     29598.00	0.11501	1546734.0	1181864.0	632763.0	0.269053	0.624752
     29598.51	0.12915	1700436.0	1299741.0	696137.0	0.268720	0.624374
     29599.01	0.12159	1648434.0	1259837.0	674831.0	0.268843	0.624275
     29599.51	0.11912	1574160.0	1202939.0	644811.0	0.268954	0.623566
     29600.02	0.12579	1700560.0	1299733.0	696209.0	0.268799	0.624264
     29600.52	0.13360	1807724.0	1381777.0	740425.0	0.268698	0.623901
     29601.03	0.12872	1718423.0	1313324.0	704188.0	0.268846	0.623271
     29601.53	0.12361	1629636.0	1245617.0	667902.0	0.268726	0.623245
     29602.03	0.13812	1800655.0	1376424.0	737952.0	0.268662	0.623365
     29602.54	0.12375	1638930.0	1252667.0	671527.0	0.268769	0.623476
     29603.04	0.12940	1693037.0	1294062.0	694111.0	0.268738	0.622909
     29603.55	0.11912	1601923.0	1224205.0	656656.0	0.268913	0.622887
     29604.05	0.12312	1631127.0	1247109.0	669015.0	0.268443	0.622777
     29604.55	0.12335	1648072.0	1260044.0	676154.0	0.268459	0.622481
     29605.06	0.12825	1732270.0	1324511.0	710916.0	0.268389	0.622244
     29605.56	0.12389	1662828.0	1271053.0	682679.0	0.268674	0.621576
     29606.07	0.12872	1743261.0	1332882.0	715457.0	0.268414	0.622177
     29606.57	0.12769	1711546.0	1308266.0	702456.0	0.268694	0.621875
     29607.07	0.13761	1801842.0	1377954.0	740049.0	0.268210	0.621639
     29607.58	0.13241	1781547.0	1362153.0	731505.0	0.268416	0.621718
     29608.08	0.13536	1829475.0	1399068.0	751805.0	0.268223	0.621085
     29608.59	0.12914	1774111.0	1356264.0	728726.0	0.268566	0.621191
     29609.09	0.12762	1710840.0	1307947.0	703108.0	0.268526	0.620704
     29609.60	0.12301	1657624.0	1267899.0	681488.0	0.268024	0.620838
     29610.10	0.13050	1794386.0	1372109.0	737707.0	0.268314	0.620558
     29610.60	0.13132	1763504.0	1348921.0	725598.0	0.267998	0.620064
     29611.11	0.12543	1691572.0	1293421.0	695856.0	0.268368	0.619903
     29611.61	0.12685	1671319.0	1278183.0	687932.0	0.268174	0.619505
     29612.12	0.12034	1618665.0	1238010.0	666190.0	0.268096	0.619686
     29612.62	0.12615	1673116.0	1280062.0	688747.0	0.267779	0.619790
     29613.13	0.12425	1645378.0	1259068.0	677554.0	0.267598	0.619638
     29613.63	0.12116	1599645.0	1223780.0	658918.0	0.267837	0.619101
     29614.13	0.12612	1652789.0	1264687.0	681157.0	0.267640	0.618787
     29614.64	0.12362	1614008.0	1235011.0	665117.0	0.267641	0.618872
     29615.14	0.12046	1598654.0	1223387.0	659089.0	0.267539	0.618520
     29615.65	0.11011	1461472.0	1118367.0	602568.0	0.267575	0.618424
     29616.15	0.11771	1559595.0	1193473.0	643290.0	0.267559	0.618027
     29616.66	0.11802	1579770.0	1209085.0	651669.0	0.267415	0.618082
     29617.16	0.10558	1450495.0	1110047.0	598134.0	0.267503	0.618343
     29617.67	0.11865	1573931.0	1204450.0	650080.0	0.267553	0.616683
     29618.17	0.11019	1478612.0	1131491.0	610233.0	0.267568	0.617451
     29618.68	0.13095	1719769.0	1316363.0	710213.0	0.267317	0.617063
     29619.18	0.11881	1578722.0	1208442.0	652112.0	0.267284	0.616871
     29619.68	0.11252	1487233.0	1138308.0	614357.0	0.267374	0.616722
     29620.19	0.13126	1733507.0	1326934.0	716587.0	0.267276	0.616127
     29620.69	0.12765	1686454.0	1291051.0	696871.0	0.267171	0.616612
     29621.20	0.12367	1644459.0	1258640.0	679722.0	0.267380	0.616103
     29621.70	0.13346	1757196.0	1345112.0	726826.0	0.267242	0.615545
     29622.21	0.12538	1629542.0	1247617.0	674004.0	0.267064	0.615755
     29622.71	0.14325	1883584.0	1441909.0	779729.0	0.267208	0.614777
     29623.22	0.13079	1698683.0	1300543.0	702936.0	0.267071	0.615271
     29623.72	0.12328	1614691.0	1236149.0	668111.0	0.267143	0.615302
     29624.23	0.13232	1764237.0	1350772.0	730263.0	0.267042	0.615027
     29624.73	0.11555	1544398.0	1182243.0	639285.0	0.267221	0.614818
     29625.24	0.12253	1646524.0	1260529.0	682109.0	0.267135	0.614097
     29625.74	0.13539	1788768.0	1369974.0	741323.0	0.266735	0.614111
     29626.25	0.13080	1746212.0	1337106.0	724095.0	0.266941	0.613340
     29626.75	0.13421	1787575.0	1369297.0	740995.0	0.266562	0.614059
     29627.26	0.13350	1756813.0	1345455.0	728830.0	0.266769	0.613047
     29627.76	0.12911	1683173.0	1288887.0	698165.0	0.266902	0.613079
     29628.27	0.13954	1849383.0	1416395.0	767207.0	0.266737	0.613114
     29628.77	0.11742	1537060.0	1177243.0	637920.0	0.266696	0.612718
     29629.28	0.12793	1687387.0	1292600.0	700212.0	0.266525	0.613028
     29629.78	0.13693	1776883.0	1361125.0	737976.0	0.266549	0.612156
     29630.28	0.13147	1755275.0	1344708.0	728843.0	0.266449	0.612474
     29630.79	0.12935	1731846.0	1326451.0	719039.0	0.266681	0.612347
     29631.29	0.12682	1703578.0	1305187.0	707793.0	0.266384	0.611950
     29631.80	0.12633	1710913.0	1310303.0	710942.0	0.266769	0.611423
     29632.31	0.12643	1713556.0	1312796.0	712215.0	0.266412	0.611535
     29632.81	0.12437	1695930.0	1299472.0	705004.0	0.266273	0.611510
     29633.32	0.12306	1658601.0	1270369.0	689915.0	0.266667	0.610494
     29633.82	0.12321	1587182.0	1216367.0	660382.0	0.266092	0.610805
     29634.33	0.12688	1712450.0	1312040.0	712428.0	0.266342	0.610660
     29634.83	0.13106	1752422.0	1342658.0	729023.0	0.266348	0.610701
     29635.34	0.12382	1658280.0	1270896.0	689985.0	0.266059	0.610808
     29635.84	0.13138	1727447.0	1323954.0	719070.0	0.266022	0.610419
     29636.35	0.10790	1431766.0	1097141.0	596212.0	0.266201	0.609867
     29636.85	0.12657	1653896.0	1267627.0	689067.0	0.265987	0.609563
     29637.36	0.12954	1751552.0	1342588.0	729967.0	0.265903	0.609355
     29637.86	0.11215	1504298.0	1153158.0	626916.0	0.265822	0.609447
     29638.37	0.11541	1545591.0	1184737.0	644119.0	0.265886	0.609393
     29638.87	0.12872	1720887.0	1319013.0	717058.0	0.265956	0.609482
     29639.38	0.12232	1656002.0	1269617.0	690848.0	0.265691	0.608551
     29639.88	0.12170	1637888.0	1255352.0	682739.0	0.265992	0.609059
     29640.39	0.12041	1624217.0	1245531.0	677417.0	0.265464	0.609030
     29640.89	0.11510	1549207.0	1187838.0	646638.0	0.265608	0.608103
     29641.40	0.13621	1809089.0	1387289.0	755108.0	0.265472	0.608246
     29641.90	0.11880	1573387.0	1206495.0	656518.0	0.265511	0.608525
     29642.41	0.13981	1875506.0	1438321.0	782963.0	0.265402	0.608146
     29642.91	0.12820	1712542.0	1312683.0	714692.0	0.265906	0.607977
     29643.42	0.13894	1838830.0	1410073.0	767960.0	0.265488	0.607659
     29643.93	0.11451	1516848.0	1163115.0	633503.0	0.265533	0.607592
     29644.43	0.13900	1841118.0	1411444.0	769081.0	0.265760	0.607172
     29644.94	0.11458	1529111.0	1172566.0	638651.0	0.265492	0.607592
     29645.44	0.12408	1638737.0	1256464.0	684347.0	0.265624	0.607592
     29645.95	0.13071	1745436.0	1338575.0	730072.0	0.265399	0.606218
     29646.45	0.11729	1543091.0	1183773.0	645248.0	0.265081	0.606827
     29646.96	0.12592	1645880.0	1262234.0	688230.0	0.265392	0.606515
     29647.46	0.13485	1821824.0	1397498.0	761392.0	0.265155	0.607290
     29647.97	0.12589	1656020.0	1270044.0	692367.0	0.265366	0.606691
     29648.48	0.13127	1753944.0	1345150.0	733264.0	0.265361	0.606755
     29648.98	0.13033	1732546.0	1329161.0	724647.0	0.265044	0.606619
     29649.49	0.12196	1612695.0	1237452.0	674808.0	0.264852	0.606381
     29649.99	0.13684	1810471.0	1389063.0	757534.0	0.264958	0.606316
     29650.50	0.12381	1661877.0	1274747.0	695501.0	0.265200	0.605871
     29651.00	0.13473	1770194.0	1358037.0	740782.0	0.265049	0.606089
     29651.51	0.12618	1674194.0	1284535.0	700828.0	0.264935	0.605890
     29652.02	0.13036	1747672.0	1340910.0	731853.0	0.264936	0.605524
     29652.52	0.15403	2034641.0	1561402.0	852065.0	0.264735	0.605677
     29653.03	0.10770	1407977.0	1081135.0	590033.0	0.264143	0.605588
     29653.53	0.12582	1653385.0	1269149.0	692771.0	0.264478	0.605402
     29654.04	0.11022	1458825.0	1119623.0	610987.0	0.264639	0.605672
     29654.54	0.12308	1622123.0	1245040.0	679762.0	0.264568	0.605180
     29655.05	0.12996	1727711.0	1325962.0	724029.0	0.264659	0.605062
     29655.56	0.13842	1811690.0	1390476.0	758941.0	0.264614	0.605477
     29656.06	0.12360	1627046.0	1248960.0	681975.0	0.264455	0.605073
     29656.57	0.14911	1973695.0	1514602.0	827338.0	0.264755	0.604695
     29657.07	0.091546	1210840.0	929612.0	507701.0	0.264302	0.604875
     29657.58	0.10958	1469114.0	1127766.0	615935.0	0.264421	0.604853
     29658.09	0.091511	1207425.0	926609.0	505928.0	0.264714	0.605137
     29658.59	0.11622	1543849.0	1185242.0	647288.0	0.264332	0.604911
     29659.10	0.11793	1519249.0	1166005.0	637094.0	0.264633	0.604421
     29659.60	0.13461	1776387.0	1363911.0	744998.0	0.264225	0.604730
     29660.11	0.11211	1476497.0	1133535.0	619697.0	0.264331	0.603866
     29660.62	0.13628	1777829.0	1365066.0	746125.0	0.264190	0.604065
     29661.12	0.11847	1530426.0	1175401.0	642272.0	0.263937	0.604353
     29661.63	0.11945	1557206.0	1195872.0	653582.0	0.264018	0.604163
     29662.13	0.12925	1676937.0	1287768.0	703735.0	0.264058	0.604264
     29662.64	0.12449	1628866.0	1251179.0	683930.0	0.263798	0.603986
     29663.15	0.13213	1718150.0	1319164.0	721343.0	0.264250	0.603639
     29663.65	0.12831	1703907.0	1308913.0	715497.0	0.263727	0.603975
     29664.16	0.14673	1952433.0	1499326.0	819439.0	0.264061	0.604151
     29664.66	0.16179	2124715.0	1631906.0	891972.0	0.263889	0.604069
     29665.17	0.13114	1692008.0	1299257.0	710533.0	0.264123	0.603532
     29665.68	0.10977	1433244.0	1100983.0	602095.0	0.263737	0.603543
     29666.18	0.092167	1216722.0	934852.0	511128.0	0.263527	0.603768
     29666.69	0.13294	1769141.0	1358812.0	743272.0	0.263883	0.603304
     29667.19	0.13966	1857743.0	1426920.0	780650.0	0.263844	0.603147
     29667.70	0.12395	1655208.0	1271248.0	695345.0	0.263928	0.603346
     29668.21	0.14707	1948112.0	1496133.0	818511.0	0.263977	0.603152
     29668.71	0.14064	1847303.0	1419366.0	776522.0	0.263516	0.603141
     29669.22	0.10779	1427708.0	1096793.0	600105.0	0.263680	0.603041
     29669.73	0.12795	1668852.0	1282307.0	701913.0	0.263475	0.602607
     29670.23	0.13323	1738042.0	1335506.0	730782.0	0.263449	0.602950
     29670.74	0.13359	1726411.0	1326631.0	726130.0	0.263402	0.602669
     29671.25	0.12955	1616317.0	1242308.0	680041.0	0.263179	0.602573
     29671.75	0.12529	1670063.0	1283380.0	703024.0	0.263364	0.601861
     29672.26	0.13796	1776518.0	1365410.0	747846.0	0.263201	0.602013
     29672.76	0.13333	1685907.0	1295579.0	709538.0	0.263346	0.602099
     29673.27	0.11255	1491229.0	1146032.0	627310.0	0.263295	0.602620
     29673.78	0.11785	1552382.0	1193077.0	653486.0	0.263255	0.601970
     29674.28	0.12941	1668653.0	1282459.0	702498.0	0.263237	0.601892
     29674.79	0.12928	1691472.0	1300540.0	712360.0	0.262820	0.601951
     29675.30	0.11742	1538658.0	1182881.0	648443.0	0.262958	0.601134
     29675.80	0.12305	1622052.0	1246999.0	682845.0	0.262952	0.602227
     29676.31	0.13447	1753220.0	1347910.0	738674.0	0.262899	0.601454
     29676.82	0.11510	1480197.0	1137570.0	623542.0	0.263281	0.601234
     29677.32	0.12696	1651677.0	1269679.0	695757.0	0.263027	0.601519
     29677.83	0.12045	1601155.0	1231230.0	674812.0	0.262712	0.601335
     29678.34	0.11884	1542884.0	1186175.0	650211.0	0.262920	0.601192
     29678.84	0.12425	1647803.0	1266728.0	694348.0	0.263006	0.601219
     29679.35	0.12027	1598175.0	1228688.0	673706.0	0.262915	0.600908
     29679.86	0.11160	1493934.0	1148717.0	629989.0	0.262767	0.600699
     29680.36	0.13598	1774273.0	1364113.0	747891.0	0.262886	0.601002
     29680.87	0.11350	1521255.0	1169562.0	641418.0	0.262906	0.600703
     29681.38	0.12843	1702248.0	1308960.0	718017.0	0.262717	0.600495
     29681.88	0.11669	1578079.0	1213535.0	665623.0	0.262671	0.600569
     29682.39	0.13604	1811420.0	1392794.0	764093.0	0.262799	0.600378
     29682.90	0.13124	1741503.0	1339298.0	734659.0	0.262603	0.600494
     29683.40	0.12842	1719960.0	1322752.0	725859.0	0.262587	0.600114
     29683.91	0.13272	1790489.0	1376788.0	755671.0	0.262736	0.599902
     29684.42	0.12902	1719203.0	1322217.0	725502.0	0.262551	0.600201
     29684.92	0.11571	1547429.0	1190390.0	653544.0	0.262314	0.599626
     29685.43	0.12175	1620557.0	1246230.0	684147.0	0.262647	0.599705
     29685.94	0.12447	1631117.0	1254658.0	688620.0	0.262402	0.599929
     29686.44	0.12640	1635614.0	1258233.0	690696.0	0.262310	0.599764
     29686.95	0.12482	1637721.0	1259677.0	691905.0	0.262450	0.599162
     29687.46	0.13101	1698698.0	1306908.0	717923.0	0.262198	0.599057
     29687.97	0.12603	1660849.0	1277736.0	701825.0	0.262239	0.599161
     29688.47	0.12922	1707110.0	1313113.0	721183.0	0.262401	0.599263
     29688.98	0.13184	1722086.0	1324546.0	727799.0	0.262467	0.598800
     29689.49	0.12686	1662991.0	1279228.0	702932.0	0.262361	0.598752
     29689.99	0.12780	1709721.0	1315310.0	722773.0	0.262258	0.598732
     29690.50	0.12869	1696135.0	1305181.0	716975.0	0.262010	0.599056
     29691.01	0.12435	1620747.0	1247242.0	685451.0	0.261952	0.598613
     29691.51	0.13821	1826507.0	1405374.0	772553.0	0.262102	0.598358
     29692.02	0.13647	1790017.0	1377527.0	757032.0	0.261935	0.598640
     29692.53	0.11621	1531439.0	1178386.0	648031.0	0.262062	0.597962
     29693.04	0.12535	1644117.0	1265460.0	695615.0	0.261768	0.598395
     29693.54	0.12245	1648857.0	1268842.0	697891.0	0.261978	0.597797
     29694.05	0.12764	1697007.0	1306119.0	718542.0	0.261806	0.597591
     29694.56	0.12581	1672423.0	1286877.0	707869.0	0.262055	0.597715
     29695.06	0.11249	1505960.0	1159061.0	637558.0	0.261820	0.597720
     29695.57	0.13814	1823727.0	1403901.0	772702.0	0.261627	0.597117
     29696.08	0.12372	1638131.0	1260818.0	693739.0	0.261795	0.597420
     29696.59	0.10748	1433363.0	1103602.0	607498.0	0.261444	0.596986
     29697.09	0.11570	1520469.0	1169964.0	644263.0	0.262046	0.596621
     29697.60	0.11438	1513720.0	1164981.0	641112.0	0.261865	0.597256
     29698.11	0.11644	1567616.0	1206558.0	664446.0	0.261784	0.596573
     29698.62	0.12216	1604654.0	1235015.0	679909.0	0.261825	0.596879
     29699.12	0.11861	1574516.0	1211937.0	667711.0	0.261728	0.596120
     29699.63	0.12096	1586347.0	1221706.0	672748.0	0.261186	0.596633
     29700.14	0.11297	1493852.0	1149803.0	633429.0	0.261767	0.596198
     29700.65	0.12209	1607181.0	1237557.0	681949.0	0.261342	0.595940
     29701.15	0.11637	1538354.0	1184528.0	652793.0	0.261369	0.595840
     29701.66	0.13417	1770741.0	1363829.0	751531.0	0.261102	0.595939
     29702.17	0.12389	1629757.0	1254827.0	691598.0	0.261433	0.595748
     29702.67	0.13215	1722945.0	1326893.0	731402.0	0.261195	0.595632
     29703.18	0.13189	1749112.0	1346515.0	742415.0	0.261588	0.595367
     29703.69	0.13541	1771239.0	1364382.0	752146.0	0.260978	0.595526
     29704.20	0.12003	1577782.0	1215221.0	670104.0	0.261094	0.595248
     29704.70	0.13838	1804116.0	1389358.0	766332.0	0.261229	0.594982
     29705.21	0.12232	1570613.0	1210043.0	667383.0	0.260810	0.595047
     29705.72	0.11742	1534927.0	1182324.0	651926.0	0.261001	0.595306
     29706.23	0.13073	1664804.0	1282654.0	707819.0	0.260776	0.594498
     29706.74	0.13769	1778634.0	1370260.0	756294.0	0.260845	0.594326
     29707.24	0.12866	1646035.0	1268300.0	700090.0	0.260692	0.594224
     29707.75	0.13246	1695664.0	1306542.0	721345.0	0.260690	0.594022
     29708.26	0.12678	1637317.0	1261235.0	696192.0	0.260968	0.594221
     29708.77	0.12755	1617080.0	1245824.0	688056.0	0.260825	0.593682
     29709.27	0.13663	1736332.0	1337801.0	738879.0	0.260748	0.593648
     29709.78	0.13471	1716332.0	1322247.0	730622.0	0.260857	0.593192
     29710.29	0.13526	1766417.0	1360990.0	751829.0	0.260741	0.593459
     29710.80	0.13228	1679283.0	1294143.0	715096.0	0.260518	0.593187
     29711.30	0.13416	1709830.0	1317647.0	727994.0	0.260546	0.593310
     29711.81	0.12090	1514829.0	1167605.0	645426.0	0.260348	0.592799
     29712.32	0.13240	1688323.0	1300906.0	718869.0	0.260675	0.593137
     29712.83	0.12031	1548504.0	1193220.0	659431.0	0.260634	0.593033
     29713.34	0.12814	1621907.0	1249899.0	691523.0	0.260540	0.591922
     29713.84	0.12550	1607448.0	1239141.0	684980.0	0.260229	0.592784
     29714.35	0.12154	1524186.0	1174434.0	649706.0	0.260674	0.592022
     29714.86	0.12983	1644811.0	1267753.0	701345.0	0.260379	0.592001
     29715.37	0.12545	1586253.0	1222581.0	676354.0	0.260410	0.592003
     29715.88	0.12497	1610490.0	1241738.0	686942.0	0.260026	0.592017
     29716.38	0.12158	1548194.0	1193579.0	660207.0	0.260133	0.592158
     29716.89	0.12156	1563858.0	1205503.0	667386.0	0.260259	0.591284
     29717.40	0.11652	1451829.0	1118948.0	619211.0	0.260435	0.591698
     29717.91	0.13336	1698776.0	1309294.0	724685.0	0.260420	0.591506
     29718.41	0.11998	1537443.0	1185489.0	656274.0	0.259965	0.591332
     29718.92	0.11802	1488396.0	1147235.0	635461.0	0.260344	0.590759
     29719.43	0.13424	1685970.0	1300510.0	720333.0	0.259585	0.590798
     29719.94	0.10727	1372732.0	1058079.0	586153.0	0.260348	0.590629
     29720.45	0.11431	1467840.0	1131846.0	627313.0	0.259942	0.590160
     29720.96	0.12355	1585339.0	1222775.0	677814.0	0.259675	0.590005
     29721.46	0.12601	1608839.0	1240284.0	687502.0	0.260172	0.590031
     29721.97	0.13632	1710399.0	1318792.0	731065.0	0.260011	0.589969
     29722.48	0.13130	1682854.0	1297666.0	719122.0	0.259924	0.590292
     29722.99	0.13167	1672116.0	1289876.0	715100.0	0.259544	0.589879
     29723.50	0.14102	1789437.0	1380202.0	765437.0	0.259671	0.589538
     29724.00	0.12282	1558094.0	1201679.0	666308.0	0.259744	0.589723
     29724.51	0.12987	1633345.0	1259562.0	698843.0	0.259866	0.589093
     29725.02	0.11226	1422766.0	1097732.0	608910.0	0.259357	0.589331
     29725.53	0.13349	1691910.0	1304983.0	723862.0	0.259668	0.589345
     29726.04	0.11810	1490523.0	1149620.0	637942.0	0.259696	0.588939
     29726.55	0.11734	1484262.0	1144856.0	635371.0	0.259639	0.588825
     29727.05	0.13346	1713120.0	1321456.0	733596.0	0.259582	0.588531
     29727.56	0.12281	1544358.0	1191158.0	661331.0	0.259682	0.588427
     29728.07	0.13088	1700946.0	1312438.0	728421.0	0.259298	0.588763
     29728.58	0.12640	1623815.0	1253135.0	695933.0	0.259130	0.588150
     29729.09	0.12476	1599295.0	1233622.0	685470.0	0.259608	0.587605
     29729.60	0.12398	1597183.0	1232375.0	684801.0	0.259298	0.587570
     29730.10	0.13538	1741718.0	1344200.0	746759.0	0.259073	0.587812
     29730.61	0.12986	1662384.0	1282607.0	712948.0	0.259358	0.587242
     29731.12	0.12971	1666210.0	1285990.0	714606.0	0.259023	0.587553
     29731.63	0.13086	1695037.0	1307752.0	727071.0	0.259395	0.587041
     29732.14	0.20151	2578909.0	1990249.0	1106546.0	0.259107	0.587016
     29732.65	0.12311	1582558.0	1220837.0	678758.0	0.259506	0.587027
     29733.15	0.070167	910872.0	702844.0	390937.0	0.259267	0.586589
     29733.66	0.11300	1436062.0	1108287.0	616280.0	0.259089	0.586869
     29734.17	0.12420	1567419.0	1209991.0	673301.0	0.258817	0.586176
     29734.68	0.12608	1558330.0	1202824.0	669169.0	0.258943	0.586391
     29735.19	0.12202	1586633.0	1224353.0	680911.0	0.259202	0.586736
     29735.70	0.13184	1703270.0	1314565.0	731698.0	0.259044	0.585893
     29736.21	0.18231	2276897.0	1757799.0	978404.0	0.258751	0.585895
     29736.71	0.12409	1599724.0	1234881.0	687370.0	0.258857	0.585857
     29737.22	0.066610	855324.0	660285.0	367732.0	0.258809	0.585317
     29737.73	0.10243	1318107.0	1017430.0	566639.0	0.258917	0.585313
     29738.24	0.098480	1255633.0	969342.0	540014.0	0.258778	0.585022
     29738.75	0.12111	1548984.0	1195926.0	665964.0	0.258678	0.585440
     29739.26	0.13525	1697567.0	1311043.0	730011.0	0.258373	0.585519
     29739.77	0.14772	1909926.0	1474667.0	821616.0	0.258632	0.584914
     29740.28	0.13864	1735366.0	1339582.0	746384.0	0.258861	0.584873
     29740.78	0.085266	1080197.0	833994.0	464704.0	0.258673	0.584826
     29741.29	0.081954	1032393.0	797236.0	444294.0	0.258484	0.584664
     29741.80	0.14171	1840695.0	1421548.0	792379.0	0.258397	0.584462
     29742.31	0.11922	1544925.0	1193259.0	665314.0	0.258287	0.584184
     29742.82	0.13589	1730265.0	1336332.0	745204.0	0.258346	0.584026
     29743.33	0.14356	1835280.0	1417676.0	790502.0	0.258178	0.584106
     29743.84	0.12576	1600017.0	1236125.0	689314.0	0.258033	0.584040
     29744.35	0.13113	1681547.0	1298812.0	724399.0	0.258264	0.583863
     29744.86	0.11383	1427792.0	1103112.0	615591.0	0.257994	0.583308
     29745.36	0.12999	1661863.0	1283683.0	716382.0	0.258206	0.583275
     29745.87	0.12683	1622511.0	1253220.0	699183.0	0.258259	0.583559
     29746.38	0.13428	1714938.0	1324938.0	739443.0	0.258011	0.583224
     29746.89	0.13817	1749771.0	1351483.0	754553.0	0.258282	0.582832
     29747.40	0.12654	1589127.0	1227770.0	685028.0	0.257985	0.583495
     29747.91	0.21390	2711100.0	2095089.0	1169440.0	0.257758	0.583071
     29748.42	0.12092	1563261.0	1207530.0	674262.0	0.258197	0.582713
     29748.93	0.069303	891622.0	688973.0	384699.0	0.257840	0.582741
     29749.44	0.11226	1450791.0	1120637.0	625911.0	0.258212	0.582444
     29749.95	0.13289	1700435.0	1313774.0	733923.0	0.257980	0.582255
     29750.45	0.13698	1739302.0	1344071.0	750635.0	0.257781	0.582539
     29750.96	0.13237	1640623.0	1267889.0	708316.0	0.257723	0.582218
     29751.47	0.13026	1675863.0	1294987.0	723851.0	0.257828	0.581670
     29751.98	0.17477	2238245.0	1730028.0	966958.0	0.257554	0.581738
     29752.49	0.088094	1120969.0	866418.0	484184.0	0.257581	0.581902
     29753.00	0.11304	1443068.0	1115465.0	623286.0	0.257500	0.582021
     29753.51	0.11870	1516054.0	1171771.0	654818.0	0.257595	0.581914
     29754.02	0.12996	1705993.0	1318920.0	737245.0	0.257334	0.581648
     29754.53	0.12556	1596395.0	1233961.0	689885.0	0.257519	0.581460
     29755.04	0.12621	1608786.0	1243604.0	695661.0	0.257466	0.580906
     29755.55	0.12503	1603701.0	1239759.0	693195.0	0.257397	0.581361
     29756.06	0.14213	1814047.0	1402616.0	784246.0	0.257221	0.581372
     29756.57	0.12297	1561067.0	1206705.0	675004.0	0.257476	0.580930
     29757.07	0.10909	1395525.0	1079011.0	603612.0	0.257226	0.580869
     29757.58	0.12006	1557925.0	1204309.0	673463.0	0.257449	0.581228
     29758.09	0.11988	1520864.0	1176175.0	658234.0	0.257011	0.580462
     29758.60	0.12350	1574619.0	1217381.0	681047.0	0.257312	0.580826
     29759.11	0.11462	1454814.0	1124752.0	629514.0	0.257315	0.580370
     29759.62	0.12900	1622293.0	1254650.0	702238.0	0.256984	0.580340
     29760.13	0.11519	1487128.0	1150418.0	644140.0	0.256721	0.579965
     29760.64	0.12231	1566252.0	1211576.0	678381.0	0.256764	0.579968
     29761.15	0.11808	1475941.0	1141438.0	639123.0	0.257007	0.579947
     29761.66	0.12709	1622993.0	1255438.0	703034.0	0.256787	0.579835
     29762.17	0.14097	1790528.0	1384952.0	775552.0	0.256845	0.579846
     29762.68	0.12496	1603269.0	1240162.0	694504.0	0.256803	0.579799
     29763.19	0.12631	1623597.0	1256090.0	703637.0	0.256640	0.579496
     29763.70	0.12651	1622431.0	1255023.0	703288.0	0.256772	0.579143
     29764.21	0.12619	1620580.0	1253794.0	702577.0	0.256610	0.579174
     29764.72	0.12813	1623148.0	1255916.0	703612.0	0.256502	0.579393
     29765.23	0.11935	1490705.0	1153133.0	646371.0	0.256767	0.578864
     29765.74	0.12346	1543574.0	1194214.0	669338.0	0.256612	0.578954
     29766.25	0.13114	1635755.0	1265117.0	709123.0	0.256940	0.578891
     29766.76	0.12726	1606803.0	1243238.0	696734.0	0.256527	0.579071
     29767.26	0.12888	1606758.0	1243091.0	696843.0	0.256617	0.578796
     29767.77	0.12202	1541230.0	1192631.0	668876.0	0.256419	0.578318
     29768.28	0.12433	1585820.0	1227245.0	687774.0	0.256330	0.579067
     29768.79	0.13193	1682628.0	1302206.0	730189.0	0.256297	0.578512
     29769.30	0.12906	1631061.0	1262269.0	707576.0	0.256320	0.578821
     29769.81	0.13122	1641134.0	1270491.0	712563.0	0.255984	0.578290
     29770.32	0.13081	1657118.0	1282531.0	719672.0	0.256244	0.577795
     29770.83	0.12964	1606158.0	1243121.0	697412.0	0.256220	0.578004
     29771.34	0.13061	1639093.0	1268370.0	711384.0	0.256410	0.578276
     29771.85	0.12701	1575632.0	1219509.0	684247.0	0.256208	0.577885
     29772.36	0.12666	1614319.0	1249639.0	700939.0	0.256058	0.578189
     29772.87	0.13196	1695224.0	1312132.0	736473.0	0.256162	0.577536
     29773.38	0.12385	1548382.0	1198474.0	672566.0	0.256161	0.577704
     29773.89	0.12406	1570309.0	1215710.0	682175.0	0.255944	0.577797
     29774.40	0.12266	1518123.0	1175298.0	659695.0	0.255953	0.577499
     29774.91	0.11867	1460594.0	1130812.0	634754.0	0.255907	0.577454
     29775.42	0.14055	1783450.0	1380374.0	774939.0	0.256195	0.577325
     29775.93	0.10082	1270484.0	983720.0	552340.0	0.255812	0.577178
     29776.44	0.12405	1561557.0	1208874.0	678768.0	0.255994	0.577165
     29776.95	0.11799	1462666.0	1132452.0	636209.0	0.255876	0.576613
     29777.46	0.11895	1467395.0	1136130.0	637908.0	0.255861	0.577189
     29777.97	0.12010	1516088.0	1173772.0	659187.0	0.255911	0.576971
     29778.48	0.11667	1456568.0	1128226.0	633607.0	0.255436	0.576973
     29778.99	0.11044	1365811.0	1057551.0	594264.0	0.255793	0.576387
     29779.50	0.14710	1820420.0	1409510.0	791387.0	0.255825	0.577210
     29780.01	0.098790	1260618.0	976040.0	548606.0	0.255854	0.576123
     29780.52	0.10704	1339688.0	1037575.0	582930.0	0.255550	0.576574
     29781.03	0.12505	1566335.0	1213196.0	681675.0	0.255480	0.576460
     29781.54	0.13110	1646031.0	1274914.0	716373.0	0.255488	0.576433
     29782.05	0.12334	1536557.0	1190216.0	668883.0	0.255409	0.576281
     29782.56	0.14102	1759777.0	1363146.0	766266.0	0.255392	0.576021
     29783.07	0.14030	1766027.0	1368160.0	768794.0	0.255266	0.576399
     29783.58	0.12033	1525652.0	1181732.0	664365.0	0.255441	0.575905
     29784.09	0.13187	1638738.0	1269680.0	713816.0	0.255162	0.575895
     29784.60	0.11822	1498036.0	1160839.0	652698.0	0.255012	0.575784
     29785.12	0.13112	1660745.0	1286670.0	723290.0	0.255209	0.576003
     29785.63	0.12178	1527358.0	1183307.0	665509.0	0.255226	0.575516
     29786.14	0.13404	1660830.0	1286425.0	723320.0	0.255450	0.575771
     29786.65	0.12833	1624831.0	1259131.0	708334.0	0.254982	0.575261
     29787.16	0.13023	1651054.0	1279618.0	719701.0	0.254852	0.575481
     29787.67	0.13698	1689400.0	1308993.0	736286.0	0.255115	0.575395
     29788.18	0.12856	1602057.0	1241480.0	698166.0	0.254984	0.575603
     29788.69	0.14006	1757186.0	1362037.0	766488.0	0.254732	0.574918
     29789.20	0.13627	1686193.0	1306575.0	735247.0	0.255064	0.574958
     29789.71	0.13196	1655727.0	1283318.0	722216.0	0.254791	0.574880
     29790.22	0.12961	1618534.0	1254783.0	706104.0	0.254558	0.574955
     29790.73	0.12719	1572725.0	1218587.0	686051.0	0.255118	0.574495
     29791.24	0.12570	1553476.0	1204389.0	677801.0	0.254523	0.574874
     29791.75	0.12933	1589005.0	1231281.0	693105.0	0.255053	0.574629
     29792.26	0.13113	1624414.0	1259231.0	709009.0	0.254646	0.574388
     29792.77	0.12522	1539045.0	1192733.0	671627.0	0.254915	0.574299
     29793.28	0.12569	1558693.0	1208498.0	680167.0	0.254469	0.574795
     29793.79	0.11885	1508315.0	1169494.0	658428.0	0.254422	0.574471
     29794.30	0.13113	1654195.0	1282234.0	721828.0	0.254711	0.574572
     29794.81	0.11941	1484134.0	1150844.0	648126.0	0.254336	0.574166
     29795.32	0.12159	1534915.0	1189684.0	670509.0	0.254787	0.573406
     29795.84	0.13581	1734507.0	1344857.0	757627.0	0.254436	0.573852
     29796.35	0.12096	1498971.0	1162241.0	654525.0	0.254429	0.574196
     29796.86	0.12197	1546872.0	1199411.0	675819.0	0.254404	0.573661
     29797.37	0.11623	1460551.0	1132553.0	637957.0	0.254339	0.573959
     29797.88	0.12551	1598476.0	1239726.0	698717.0	0.254160	0.573400
     29798.39	0.11280	1410488.0	1093810.0	616572.0	0.254269	0.573247
     29798.90	0.12120	1528321.0	1185471.0	668543.0	0.254030	0.572795
     29799.41	0.12313	1536596.0	1192161.0	671790.0	0.253802	0.573577
     29799.92	0.11612	1437843.0	1114943.0	628515.0	0.254341	0.573199
     29800.43	0.12780	1623846.0	1259507.0	710194.0	0.254077	0.572937
     29800.94	0.11368	1419025.0	1100536.0	620646.0	0.254173	0.572792
     29801.45	0.14152	1761471.0	1366574.0	770919.0	0.253842	0.572479
     29801.97	0.12210	1545787.0	1199131.0	676179.0	0.253936	0.572895
     29802.48	0.12885	1606216.0	1246031.0	702721.0	0.253918	0.572759
     29802.99	0.13178	1672912.0	1297500.0	731731.0	0.254126	0.572782
     29803.50	0.12105	1558169.0	1208986.0	681977.0	0.253729	0.572541
     29804.01	0.13191	1653824.0	1283182.0	724201.0	0.253747	0.572029
     29804.52	0.13310	1624239.0	1260215.0	710928.0	0.253757	0.572466
     29805.03	0.11811	1446953.0	1123286.0	633897.0	0.253202	0.572127
     29805.54	0.12613	1552093.0	1204184.0	679542.0	0.253802	0.572138
     29806.05	0.12094	1498877.0	1162876.0	656421.0	0.253820	0.571849
     29806.56	0.13081	1556817.0	1208314.0	681950.0	0.253417	0.572025
     29807.07	0.14163	1715082.0	1330822.0	751124.0	0.253664	0.571981
     29807.59	0.19926	2412665.0	1872225.0	1057119.0	0.253604	0.571580
     29808.10	0.071189	865009.0	670974.0	379011.0	0.254010	0.571165
     29808.61	0.098272	1172268.0	909581.0	513695.0	0.253712	0.571354
     29809.12	0.12661	1558146.0	1209200.0	683191.0	0.253538	0.570940
     29809.63	0.12394	1569920.0	1218006.0	688004.0	0.253810	0.571176
     29810.14	0.17097	2107398.0	1635591.0	924174.0	0.253450	0.570859
     29810.65	0.11553	1418841.0	1100957.0	622187.0	0.253661	0.570694
     29811.16	0.12726	1579771.0	1226051.0	692890.0	0.253481	0.570682
     29811.68	0.10605	1278485.0	992259.0	560786.0	0.253447	0.570645
     29812.19	0.12958	1573920.0	1221990.0	690428.0	0.253089	0.570924
     29812.70	0.11620	1456851.0	1130989.0	639290.0	0.253185	0.570490
     29813.21	0.13403	1666845.0	1294180.0	731617.0	0.253055	0.570375
     29813.72	0.11881	1482045.0	1150581.0	650536.0	0.253156	0.570226
     29814.23	0.14565	1825973.0	1417739.0	801969.0	0.253050	0.569749
     29814.74	0.11829	1464420.0	1136956.0	642951.0	0.253105	0.570041
     29815.25	0.14346	1764934.0	1370099.0	775082.0	0.253230	0.569669
     29815.77	0.10324	1223213.0	949918.0	537536.0	0.252861	0.569380
     29816.28	0.10081	1234197.0	958458.0	542231.0	0.252850	0.569634
     29816.79	0.11403	1370969.0	1064403.0	602242.0	0.253104	0.569510
     29817.30	0.12074	1481226.0	1150202.0	651020.0	0.252933	0.569152
     29817.81	0.11717	1454655.0	1129419.0	639150.0	0.253065	0.569319
     29818.32	0.12655	1557094.0	1209344.0	684521.0	0.252743	0.569114
     29818.83	0.11543	1397332.0	1084993.0	613876.0	0.252991	0.569536
     29819.35	0.13171	1595288.0	1239544.0	701708.0	0.252311	0.568981
     29819.86	0.11283	1355362.0	1052599.0	595901.0	0.252806	0.568943
     29820.37	0.10917	1336963.0	1038660.0	588281.0	0.252469	0.568482
     29820.88	0.10953	1342911.0	1043220.0	590831.0	0.252528	0.568537
     29821.39	0.12856	1577901.0	1225684.0	694143.0	0.252596	0.568576
     29821.90	0.12761	1537083.0	1193835.0	676436.0	0.252716	0.568088
     29822.42	0.15587	1924455.0	1494819.0	846880.0	0.252638	0.568201
     29822.93	0.13437	1684905.0	1308863.0	741702.0	0.252550	0.567967
     29823.44	0.15359	1868369.0	1451453.0	822711.0	0.252501	0.567715
     29823.95	0.096111	1168441.0	907885.0	514434.0	0.252308	0.568050
     29824.46	0.11336	1411310.0	1096569.0	621658.0	0.252332	0.567551
     29824.97	0.12916	1597800.0	1241357.0	703730.0	0.252423	0.567566
     29825.49	0.13277	1597576.0	1241251.0	703729.0	0.252368	0.567482
     29826.00	0.12521	1521889.0	1182860.0	670820.0	0.252017	0.567190
     29826.51	0.13726	1665117.0	1293894.0	733866.0	0.252239	0.567085
     29827.02	0.13005	1549709.0	1204154.0	683281.0	0.252290	0.566626
     29827.53	0.13669	1636870.0	1272339.0	721760.0	0.251929	0.566920
     29828.04	0.11940	1470281.0	1142707.0	648201.0	0.252054	0.566954
     29828.56	0.13166	1629159.0	1265869.0	717940.0	0.252305	0.567128
     29829.07	0.13682	1653276.0	1285186.0	729198.0	0.251855	0.566713
     29829.58	0.13010	1560561.0	1213062.0	688242.0	0.251898	0.566763
     29830.09	0.13554	1659918.0	1290064.0	732020.0	0.252076	0.566639
     29830.60	0.13513	1639196.0	1274508.0	723470.0	0.251646	0.566256
     29831.11	0.13724	1646975.0	1280285.0	726957.0	0.251858	0.565971
     29831.63	0.13564	1637488.0	1272741.0	722521.0	0.251991	0.566182
     29832.14	0.11588	1403773.0	1091152.0	619610.0	0.251930	0.565899
     29832.65	0.12644	1584431.0	1231673.0	699503.0	0.251852	0.565759
     29833.16	0.12111	1504218.0	1169410.0	664190.0	0.251774	0.565686
     29833.67	0.12504	1551342.0	1205975.0	684838.0	0.251832	0.565861
     29834.19	0.12641	1552448.0	1206920.0	685890.0	0.251761	0.565110
     29834.70	0.12161	1507705.0	1172336.0	666077.0	0.251590	0.565348
     29835.21	0.12653	1562588.0	1214796.0	690292.0	0.251767	0.565217
     29835.72	0.13152	1607929.0	1250658.0	710459.0	0.251277	0.565514
     29836.23	0.11918	1495487.0	1162948.0	660969.0	0.251494	0.565006
     29836.75	0.11937	1486618.0	1156167.0	657066.0	0.251394	0.565081
     29837.26	0.12576	1554011.0	1208048.0	686937.0	0.251833	0.564519
     29837.77	0.12290	1506599.0	1171406.0	665932.0	0.251650	0.564772
     29838.28	0.11573	1404366.0	1091973.0	620939.0	0.251600	0.564509
     29838.80	0.13039	1551941.0	1206938.0	686787.0	0.251420	0.563818
     29839.31	0.12280	1478786.0	1150121.0	653952.0	0.251354	0.564588
     29839.82	0.12524	1486972.0	1156422.0	657888.0	0.251411	0.564051
     29840.33	0.10906	1310445.0	1019496.0	580011.0	0.251058	0.564017
     29840.84	0.12324	1497264.0	1164635.0	662642.0	0.251232	0.563928
     29841.36	0.11434	1367935.0	1064011.0	605385.0	0.251257	0.563936
     29841.87	0.13505	1651427.0	1284962.0	731131.0	0.250911	0.563892
     29842.38	0.12480	1514290.0	1177860.0	670649.0	0.251247	0.563209
     29842.89	0.12952	1562001.0	1215073.0	691898.0	0.251164	0.563121
     29843.41	0.13334	1580907.0	1229955.0	700362.0	0.251021	0.563136
     29843.92	0.13187	1586457.0	1234268.0	703085.0	0.251025	0.562756
     29844.43	0.12990	1532843.0	1192539.0	679654.0	0.251040	0.562256
     29844.94	0.11314	1339136.0	1042118.0	593406.0	0.250769	0.563132
     29845.46	0.12905	1582934.0	1231236.0	701392.0	0.251262	0.562707
     29845.97	0.12280	1490794.0	1159962.0	660780.0	0.250922	0.562722
     29846.48	0.12947	1598560.0	1243855.0	708530.0	0.250888	0.562778
     29846.99	0.12961	1599648.0	1244754.0	708960.0	0.250846	0.562894
     29847.50	0.12529	1500671.0	1167579.0	665479.0	0.250980	0.562181
     29848.02	0.12004	1458023.0	1134703.0	646856.0	0.250710	0.562003
     29848.53	0.12439	1517579.0	1181150.0	673220.0	0.250628	0.562172
     29849.04	0.13164	1595482.0	1241890.0	707860.0	0.250541	0.562143
     29849.56	0.13101	1553407.0	1208841.0	689511.0	0.250789	0.561435
     29850.07	0.12666	1532652.0	1193055.0	680380.0	0.250482	0.561621
     29850.58	0.13719	1673059.0	1302217.0	742666.0	0.250585	0.561577
     29851.09	0.12978	1556080.0	1211275.0	690635.0	0.250496	0.561817
     29851.61	0.12855	1519616.0	1182937.0	674941.0	0.250457	0.561130
     29852.12	0.12282	1434058.0	1116337.0	637152.0	0.250455	0.560800
     29852.63	0.13054	1547460.0	1205059.0	687492.0	0.250086	0.561234
     29853.14	0.12538	1497727.0	1165751.0	665373.0	0.250583	0.560773
     29853.66	0.12239	1414878.0	1101112.0	628462.0	0.250723	0.560800
     29854.17	0.13081	1575257.0	1226400.0	700001.0	0.250335	0.560757
     29854.68	0.12921	1591058.0	1238720.0	707274.0	0.250321	0.560416
     29855.19	0.12218	1469010.0	1143745.0	652837.0	0.250281	0.560736
     29855.71	0.13290	1597285.0	1243757.0	710205.0	0.250169	0.560338
     29856.22	0.10967	1323283.0	1030082.0	588141.0	0.250477	0.560427
     29856.73	0.12293	1492240.0	1161677.0	663768.0	0.250414	0.559687
     29857.25	0.11115	1351515.0	1052262.0	601036.0	0.250284	0.560043
     29857.76	0.12434	1520930.0	1184400.0	676666.0	0.250086	0.559814
     29858.27	0.11079	1340726.0	1044201.0	596584.0	0.249959	0.559787
     29858.78	0.12335	1523816.0	1187067.0	678134.0	0.249732	0.559896
     29859.30	0.11359	1436750.0	1118775.0	639418.0	0.250149	0.559431
     29859.81	0.13376	1654329.0	1288304.0	736127.0	0.250069	0.559679
     29860.32	0.099995	1216223.0	947145.0	541313.0	0.250053	0.559455
     29860.84	0.11831	1428263.0	1112129.0	635621.0	0.250183	0.559429
     29861.35	0.12604	1518373.0	1182769.0	676331.0	0.249781	0.558931
     29861.86	0.12219	1500223.0	1168638.0	668129.0	0.249775	0.559113
     29862.37	0.12772	1574047.0	1226008.0	701111.0	0.249887	0.558852
     29862.89	0.13004	1574675.0	1226709.0	701735.0	0.249714	0.558534
     29863.40	0.13337	1634330.0	1273260.0	728259.0	0.249652	0.558679
     29863.91	0.11930	1440162.0	1122127.0	641780.0	0.249530	0.558736
     29864.43	0.13438	1671990.0	1302575.0	745335.0	0.249671	0.558265
     29864.94	0.12831	1547614.0	1205665.0	689914.0	0.249683	0.558220
     29865.45	0.12936	1575723.0	1227455.0	702393.0	0.249771	0.558205
     29865.97	0.12604	1502662.0	1170736.0	670089.0	0.249606	0.557977
     29866.48	0.13135	1609622.0	1254146.0	718052.0	0.249545	0.557668
     29866.99	0.13421	1625143.0	1266354.0	724854.0	0.249454	0.557927
     29867.50	0.12403	1490070.0	1160886.0	664606.0	0.249640	0.557744
     29868.02	0.13220	1618630.0	1261318.0	722372.0	0.249423	0.557372
     29868.53	0.12546	1494657.0	1164976.0	666789.0	0.249196	0.557982
     29869.04	0.13364	1646872.0	1283115.0	734958.0	0.249587	0.557233
     29869.56	0.13795	1665476.0	1297867.0	743382.0	0.249389	0.557267
     29870.07	0.12719	1514077.0	1179977.0	676375.0	0.249311	0.556503
     29870.58	0.13976	1681739.0	1310993.0	750952.0	0.249044	0.557198
     29871.10	0.11463	1378401.0	1074441.0	615932.0	0.249124	0.556419
     29871.61	0.14868	1802977.0	1405483.0	805275.0	0.249058	0.556952
     29872.12	0.12688	1552542.0	1210659.0	693697.0	0.248729	0.556885
     29872.64	0.13306	1651345.0	1286982.0	737487.0	0.249290	0.556807
     29873.15	0.12162	1474760.0	1149579.0	659016.0	0.249099	0.556403
     29873.66	0.13582	1654600.0	1290065.0	739506.0	0.248867	0.556465
     29874.18	0.12275	1512222.0	1178919.0	676012.0	0.248982	0.556142
     29874.69	0.12644	1479314.0	1153496.0	661543.0	0.248781	0.555978
     29875.20	0.13026	1526925.0	1190561.0	682734.0	0.248831	0.556075
     29875.72	0.11592	1374158.0	1071194.0	614241.0	0.249067	0.556142
     29876.23	0.13120	1580244.0	1232314.0	706854.0	0.248686	0.555825
     29876.74	0.12527	1491386.0	1163208.0	667336.0	0.248524	0.555643
     29877.26	0.12900	1540681.0	1201474.0	689269.0	0.248675	0.555673
     29877.77	0.11630	1400306.0	1091946.0	626666.0	0.248729	0.555303
     29878.29	0.12222	1487340.0	1159996.0	665618.0	0.248573	0.555456
     29878.80	0.12069	1425650.0	1111984.0	638225.0	0.248482	0.555210
     29879.31	0.13719	1675804.0	1306794.0	750084.0	0.248716	0.555147
     29879.83	0.10665	1275776.0	994331.0	571061.0	0.249240	0.554574
     29880.34	0.13842	1648067.0	1285487.0	737914.0	0.248465	0.555066
     29880.85	0.11308	1371908.0	1069956.0	614393.0	0.248585	0.554738
     29881.37	0.11177	1328837.0	1036688.0	595209.0	0.248273	0.554874
     29881.88	0.11847	1405965.0	1096435.0	629374.0	0.248660	0.555094
     29882.39	0.12470	1492081.0	1163783.0	668562.0	0.248496	0.554302
     29882.91	0.12194	1483111.0	1156995.0	664476.0	0.248316	0.554583
     29883.42	0.13181	1575810.0	1229068.0	706393.0	0.248513	0.553840
     29883.94	0.12800	1508848.0	1177479.0	676610.0	0.247971	0.554036
     29884.45	0.12629	1499423.0	1169626.0	671750.0	0.248396	0.554553
     29884.96	0.12734	1565604.0	1221890.0	702261.0	0.247873	0.553849
     29885.48	0.13223	1651318.0	1288164.0	739944.0	0.248356	0.554399
     29885.99	0.12552	1488210.0	1161059.0	667390.0	0.248242	0.553713
     29886.50	0.12411	1528490.0	1192618.0	685481.0	0.248129	0.553785
     29887.02	0.12837	1547699.0	1207685.0	694393.0	0.248064	0.553423
     29887.53	0.12659	1549689.0	1209526.0	695267.0	0.247826	0.553688
     29888.05	0.11907	1439496.0	1123546.0	646151.0	0.247803	0.553212
     29888.56	0.13028	1619449.0	1263661.0	726663.0	0.248073	0.553306
     29889.07	0.11977	1462628.0	1141642.0	656407.0	0.247767	0.553442
     29889.59	0.13180	1597374.0	1246539.0	716949.0	0.247990	0.553121
     29890.10	0.12458	1502227.0	1172285.0	674423.0	0.247994	0.552853
     29890.62	0.13140	1619325.0	1263392.0	726960.0	0.248209	0.552684
     29891.13	0.12492	1498879.0	1170040.0	672910.0	0.247680	0.553182
     29891.64	0.13016	1583918.0	1236345.0	711535.0	0.247742	0.552490
     29892.16	0.13405	1629029.0	1271612.0	732037.0	0.247699	0.552210
     29892.67	0.13705	1642524.0	1282046.0	737776.0	0.247777	0.552572
     29893.19	0.13657	1672523.0	1305372.0	751438.0	0.247845	0.552255
     29893.70	0.10943	1302323.0	1016667.0	585132.0	0.247620	0.552447
     29894.21	0.14127	1681657.0	1312569.0	755646.0	0.247793	0.552169
     29894.73	0.11176	1373680.0	1072275.0	617643.0	0.247711	0.551627
     29895.24	0.12614	1520664.0	1187183.0	683743.0	0.247564	0.551756
     29895.76	0.12754	1526271.0	1191768.0	686397.0	0.247390	0.551737
     29896.27	0.13077	1545487.0	1206447.0	694737.0	0.247659	0.551902
     29896.78	0.13385	1634058.0	1276146.0	735101.0	0.247222	0.551592
     29897.30	0.14841	1754089.0	1370274.0	789038.0	0.246939	0.551952
     29897.81	0.088272	1057474.0	825892.0	475757.0	0.247174	0.551557
     29898.33	0.13436	1593955.0	1244331.0	717003.0	0.247620	0.551273
     29898.84	0.10368	1240296.0	968696.0	557926.0	0.247155	0.551725
     29899.36	0.11675	1386201.0	1082666.0	623858.0	0.247140	0.551259
     29899.87	0.12156	1422939.0	1111377.0	640096.0	0.247125	0.551737
     29900.38	0.11805	1427149.0	1114766.0	642428.0	0.247034	0.551145
     29900.90	0.11875	1397797.0	1091792.0	629488.0	0.247077	0.550669
     29901.41	0.15755	1885965.0	1473232.0	848874.0	0.246981	0.551303
     29901.93	0.093983	1105999.0	864052.0	498201.0	0.246871	0.550629
     29902.44	0.087763	1058622.0	826860.0	476821.0	0.247088	0.550494
     29902.96	0.12926	1571733.0	1227872.0	708099.0	0.246896	0.550454
     29903.47	0.12684	1528427.0	1194330.0	688596.0	0.246654	0.550686
     29903.98	0.11629	1383376.0	1080808.0	623323.0	0.246818	0.550399
     29904.50	0.13745	1678307.0	1311064.0	756480.0	0.246947	0.549918
     29905.01	0.12712	1505337.0	1176320.0	678433.0	0.246626	0.550360
     29905.53	0.12563	1485549.0	1160349.0	669527.0	0.247064	0.549905
     29906.04	0.13836	1665974.0	1301384.0	750680.0	0.246982	0.550204
     29906.56	0.11874	1425027.0	1113595.0	642342.0	0.246597	0.550228
     29907.07	0.13588	1618418.0	1264846.0	730298.0	0.246499	0.549253
     29907.59	0.12273	1469777.0	1148564.0	662748.0	0.246598	0.549873
     29908.10	0.13826	1681360.0	1313603.0	757826.0	0.246829	0.550075
     29908.62	0.12669	1520665.0	1188154.0	685981.0	0.246747	0.549306
     29909.13	0.13515	1602496.0	1252661.0	722775.0	0.246292	0.549927
     29909.64	0.18189	2183739.0	1706741.0	985163.0	0.246453	0.549534
     29910.16	0.077443	950197.0	742634.0	428946.0	0.246466	0.548872
     29910.67	0.11637	1406642.0	1099412.0	634729.0	0.246430	0.549333
     29911.19	0.12224	1433543.0	1120309.0	646906.0	0.246544	0.549159
     29911.70	0.15835	1901206.0	1486014.0	858170.0	0.246391	0.549050
     29912.22	0.13353	1578058.0	1233922.0	712781.0	0.245997	0.548779
     29912.73	0.13389	1575885.0	1231917.0	711607.0	0.246246	0.548801
     29913.25	0.12824	1531287.0	1196909.0	691728.0	0.246366	0.548305
     29913.76	0.14225	1690449.0	1321562.0	763524.0	0.246180	0.548625
     29914.28	0.13074	1527499.0	1194351.0	690020.0	0.246029	0.548638
     29914.79	0.11546	1384306.0	1082611.0	625593.0	0.245823	0.548431
     29915.31	0.12798	1511605.0	1181578.0	682874.0	0.246321	0.548296
     29915.82	0.12788	1574599.0	1231103.0	711680.0	0.246090	0.548037
     29916.34	0.12479	1500036.0	1172874.0	677991.0	0.246032	0.548078
     29916.85	0.12336	1475584.0	1153949.0	667169.0	0.245864	0.547902
     29917.37	0.12599	1504986.0	1177029.0	680478.0	0.245790	0.547953
     29917.88	0.12095	1441442.0	1127079.0	651904.0	0.246015	0.547487
     29918.40	0.13598	1634665.0	1278504.0	739192.0	0.245747	0.547888
     29918.91	0.11558	1380153.0	1079733.0	624206.0	0.245481	0.547989
     29919.43	0.12290	1474047.0	1152996.0	666764.0	0.245648	0.547683
     29919.94	0.11696	1403846.0	1097944.0	635289.0	0.245776	0.547115
     29920.46	0.12911	1567052.0	1225588.0	708886.0	0.245775	0.547481
     29920.97	0.12802	1509337.0	1180665.0	682770.0	0.245593	0.547675
     29921.49	0.11623	1386551.0	1084609.0	627555.0	0.245600	0.547144
     29922.00	0.12011	1435034.0	1122451.0	649662.0	0.245674	0.546818
     29922.52	0.12173	1480863.0	1158290.0	670272.0	0.245680	0.547016
     29923.03	0.11807	1411643.0	1104630.0	639185.0	0.245244	0.547072
     29923.55	0.11607	1415746.0	1107499.0	640950.0	0.245552	0.546908
     29924.06	0.12273	1489400.0	1165566.0	674506.0	0.245167	0.546982
     29924.58	0.12264	1481801.0	1159453.0	671516.0	0.245310	0.546166
     29925.09	0.13223	1571192.0	1229149.0	711890.0	0.245513	0.546154
     29925.61	0.12565	1499794.0	1173400.0	679458.0	0.245422	0.546365
     29926.12	0.13185	1591698.0	1245330.0	721239.0	0.245401	0.546185
     29926.64	0.11892	1406770.0	1100793.0	637498.0	0.245265	0.546235
     29927.15	0.13082	1551735.0	1214466.0	703636.0	0.245069	0.545799
     29927.67	0.12688	1517424.0	1187280.0	687934.0	0.245349	0.545727
     29928.18	0.13080	1562504.0	1222903.0	708555.0	0.245062	0.545755
     29928.70	0.12073	1483792.0	1161035.0	672691.0	0.245289	0.545781
     29929.21	0.12665	1544972.0	1209411.0	700569.0	0.244872	0.545996
     29929.73	0.12091	1447585.0	1133123.0	656873.0	0.244919	0.545242
     29930.24	0.12654	1542884.0	1207670.0	699730.0	0.244961	0.545754
     29930.76	0.12039	1481540.0	1159361.0	672131.0	0.245213	0.545171
     29931.27	0.12218	1490758.0	1166909.0	676699.0	0.244926	0.544887
     29931.79	0.13196	1604023.0	1255297.0	727717.0	0.245143	0.545215
     29932.31	0.12663	1558377.0	1220151.0	707449.0	0.244670	0.545064
     29932.82	0.12505	1553077.0	1215333.0	704859.0	0.245220	0.544776
     29933.34	0.13380	1664496.0	1302672.0	755813.0	0.245105	0.544379
     29933.85	0.12602	1565035.0	1224996.0	710392.0	0.244971	0.544876
     29934.37	0.13176	1621136.0	1269222.0	736485.0	0.244723	0.544271
     29934.88	0.13471	1689363.0	1322874.0	767419.0	0.244545	0.544529
     29935.40	0.12317	1478990.0	1157913.0	671698.0	0.244740	0.544566
     29935.91	0.12578	1563790.0	1224139.0	710176.0	0.244875	0.544480
     29936.43	0.12775	1559650.0	1221108.0	708598.0	0.244703	0.544226
     29936.94	0.12864	1578935.0	1236182.0	717552.0	0.244723	0.543937
     29937.46	0.12911	1543305.0	1208799.0	701551.0	0.244299	0.544089
     29937.98	0.11889	1460205.0	1143058.0	663760.0	0.244870	0.543542
     29938.49	0.12656	1545090.0	1209940.0	702669.0	0.244511	0.543440
     29939.01	0.12367	1488477.0	1165748.0	676449.0	0.244391	0.544261
     29939.52	0.11559	1415787.0	1108464.0	643662.0	0.244710	0.543557
     29940.04	0.13269	1624836.0	1272448.0	739194.0	0.244464	0.543137
     29940.55	0.11786	1457537.0	1141960.0	663530.0	0.244002	0.542927
     29941.07	0.11775	1435109.0	1124077.0	652919.0	0.244279	0.543264
     29941.59	0.11567	1392735.0	1090766.0	633440.0	0.244389	0.543470
     29942.10	0.12008	1476857.0	1156894.0	672209.0	0.244177	0.542925
     29942.62	0.11898	1420658.0	1113036.0	646814.0	0.244029	0.542788
     29943.13	0.11438	1411824.0	1106273.0	642774.0	0.243886	0.542959
     29943.65	0.12104	1475573.0	1156553.0	671971.0	0.243602	0.542984
     29944.16	0.10123	1246770.0	976833.0	567871.0	0.243996	0.542421
     29944.68	0.12973	1627133.0	1274411.0	740884.0	0.244335	0.542395
     29945.20	0.11497	1373379.0	1075631.0	625338.0	0.244367	0.542370
     29945.71	0.13813	1687106.0	1321977.0	768487.0	0.243886	0.542460
     29946.23	0.12964	1533424.0	1201570.0	698987.0	0.243874	0.541752
     29946.74	0.12089	1483602.0	1162531.0	675885.0	0.243873	0.542332
     29947.26	0.12465	1491172.0	1168388.0	679561.0	0.243937	0.541933
     29947.78	0.13650	1659070.0	1299995.0	756327.0	0.243897	0.541642
     29948.29	0.12116	1453679.0	1139146.0	662868.0	0.243819	0.541458
     29948.81	0.13082	1604304.0	1257377.0	731236.0	0.243662	0.542047
     29949.32	0.14170	1746956.0	1368866.0	796497.0	0.243892	0.541515
     29949.84	0.12290	1510896.0	1184216.0	689345.0	0.243622	0.541094
     29950.36	0.12106	1505808.0	1180387.0	686832.0	0.243487	0.541508
     29950.87	0.13709	1736098.0	1360804.0	791898.0	0.243564	0.541398
     29951.39	0.11534	1420902.0	1113870.0	648295.0	0.243451	0.541250
     29951.90	0.13419	1626556.0	1274552.0	741739.0	0.243870	0.541353
     29952.42	0.13176	1630047.0	1277673.0	744085.0	0.243568	0.540640
     29952.94	0.13065	1639326.0	1284935.0	748000.0	0.243577	0.541060
     29953.45	0.13631	1711720.0	1341851.0	781791.0	0.243449	0.540218
     29953.97	0.13792	1682053.0	1318331.0	767711.0	0.243649	0.540708
     29954.48	0.12733	1541709.0	1208482.0	703974.0	0.243527	0.540379
     29955.00	0.13336	1630392.0	1277874.0	744184.0	0.243623	0.540665
     29955.52	0.12319	1503325.0	1178436.0	686419.0	0.243491	0.540455
     29956.03	0.13535	1665673.0	1306158.0	760885.0	0.243139	0.540363
     29956.55	0.13154	1625231.0	1274193.0	742472.0	0.243337	0.540083
     29957.07	0.12772	1571956.0	1232621.0	718241.0	0.243178	0.540093
     29957.58	0.12542	1523470.0	1194594.0	696221.0	0.243184	0.539895
     29958.10	0.12983	1588511.0	1245755.0	726094.0	0.243055	0.539818
     29958.61	0.11916	1423839.0	1116486.0	650528.0	0.243170	0.540157
     29959.13	0.13022	1617734.0	1268668.0	739403.0	0.243059	0.539880
     29959.65	0.12511	1534912.0	1203496.0	701603.0	0.243242	0.539618
     29960.16	0.12135	1473629.0	1154936.0	673442.0	0.243683	0.539398
     29960.68	0.12324	1500205.0	1176810.0	686189.0	0.242794	0.539410
     29961.20	0.13282	1647592.0	1292124.0	753381.0	0.243027	0.539472
     29961.71	0.12264	1515665.0	1188709.0	692933.0	0.242986	0.539690
     29962.23	0.12719	1567503.0	1229132.0	716834.0	0.243176	0.539219
     29962.75	0.12370	1479286.0	1160155.0	676748.0	0.243006	0.539010
     29963.26	0.11674	1426858.0	1119410.0	653285.0	0.242673	0.538544
     29963.78	0.11706	1462734.0	1147602.0	669325.0	0.242633	0.539160
     29964.30	0.12886	1573280.0	1234060.0	720302.0	0.242853	0.538394
     29964.81	0.11673	1447906.0	1135498.0	663078.0	0.243047	0.537934
     29965.33	0.11880	1450518.0	1138340.0	664262.0	0.242350	0.538650
     29965.84	0.11406	1407275.0	1104314.0	644728.0	0.242431	0.538151
     29966.36	0.12617	1548092.0	1214786.0	709316.0	0.242455	0.538022
     29966.88	0.12951	1578796.0	1238563.0	723320.0	0.242711	0.537855
     29967.39	0.13930	1727100.0	1355064.0	791438.0	0.242595	0.537752
     29967.91	0.12801	1589772.0	1247159.0	728200.0	0.242722	0.538048
     29968.43	0.12691	1547490.0	1214301.0	709079.0	0.242466	0.537957
     29968.94	0.11984	1470995.0	1154330.0	674197.0	0.242419	0.537753
     29969.46	0.12529	1559527.0	1223732.0	714708.0	0.242477	0.537786
     29969.98	0.12877	1577442.0	1238234.0	723563.0	0.242118	0.537254
     29970.49	0.12579	1538984.0	1207683.0	705404.0	0.242419	0.537688
     29971.01	0.12565	1548776.0	1215438.0	710226.0	0.242360	0.537277
     29971.53	0.13172	1591652.0	1249365.0	729886.0	0.242137	0.537502
     29972.04	0.14095	1721558.0	1351290.0	789735.0	0.242170	0.537118
     29972.56	0.098030	1213071.0	952144.0	556581.0	0.242194	0.536904
     29973.08	0.12019	1477272.0	1160105.0	677919.0	0.241687	0.537238
     29973.60	0.13430	1673160.0	1313008.0	767769.0	0.242393	0.536587
     29974.11	0.11898	1453526.0	1141294.0	667291.0	0.241830	0.536692
     29974.63	0.13034	1604968.0	1259837.0	736531.0	0.242121	0.536786
     29975.15	0.13211	1610243.0	1264447.0	739333.0	0.241750	0.536642
     29975.66	0.14064	1764072.0	1384458.0	809701.0	0.242316	0.536399
     29976.18	0.15598	1936327.0	1520100.0	889384.0	0.242017	0.536002
     29976.70	0.099769	1214266.0	953230.0	557515.0	0.242039	0.536367
     29977.21	0.12084	1469109.0	1153559.0	674916.0	0.241804	0.536019
     29977.73	0.12065	1497897.0	1176154.0	687913.0	0.241812	0.536343
     29978.25	0.13256	1597637.0	1254415.0	734132.0	0.241856	0.535736
     29978.76	0.13002	1616403.0	1269166.0	742673.0	0.241843	0.535859
     29979.28	0.13654	1683607.0	1322197.0	773894.0	0.241644	0.535615
     29979.80	0.12426	1535482.0	1206112.0	706034.0	0.241442	0.535494
     29980.32	0.18221	2269332.0	1782170.0	1043323.0	0.241654	0.535421
     29980.83	0.092962	1123142.0	882152.0	516322.0	0.241521	0.535634
     29981.35	0.10719	1310009.0	1028597.0	602557.0	0.241838	0.534769
     29981.87	0.11299	1403527.0	1102683.0	645430.0	0.241242	0.535585
     29982.38	0.11131	1356602.0	1065582.0	624039.0	0.241462	0.535064
     29982.90	0.12419	1501958.0	1179603.0	690871.0	0.241592	0.534980
     29983.42	0.13739	1656363.0	1301081.0	761825.0	0.241429	0.535234
     29983.94	0.12160	1495319.0	1174537.0	687948.0	0.241466	0.534916
     29984.45	0.14053	1744045.0	1370017.0	802499.0	0.241384	0.534848
     29984.97	0.086307	1025649.0	805749.0	472147.0	0.241309	0.534482
     29985.49	0.10346	1279347.0	1005137.0	588885.0	0.241226	0.534648
     29986.00	0.11031	1347508.0	1058833.0	620374.0	0.241090	0.534600
     29986.52	0.11265	1366842.0	1073721.0	629186.0	0.241373	0.534459
     29987.04	0.11384	1380686.0	1085036.0	636230.0	0.240967	0.533808
     29987.56	0.13196	1583679.0	1244448.0	729170.0	0.241059	0.534540
     29988.07	0.14808	1813620.0	1425077.0	835569.0	0.241099	0.533868
     29988.59	0.18724	2224671.0	1748202.0	1024606.0	0.241021	0.534280
     29989.11	0.094361	1149200.0	903126.0	529546.0	0.240959	0.533842
     29989.63	0.096040	1163954.0	914543.0	536470.0	0.241154	0.533414
     29990.14	0.11926	1463560.0	1150390.0	674377.0	0.240771	0.534067
     29990.66	0.13495	1654128.0	1299768.0	762137.0	0.241088	0.533815
     29991.18	0.11971	1457143.0	1145557.0	671929.0	0.240587	0.533494
     29991.70	0.13581	1661928.0	1306091.0	766232.0	0.240940	0.533309
     29992.21	0.13000	1589288.0	1249582.0	732867.0	0.240477	0.533600
     29992.73	0.21060	2625154.0	2062789.0	1210382.0	0.241081	0.533123
     29993.25	0.092476	1136100.0	892924.0	524016.0	0.240855	0.532979
     29993.77	0.086645	1062833.0	835547.0	490298.0	0.240607	0.533073
     29994.28	0.12043	1484069.0	1166274.0	684647.0	0.240974	0.532666
     29994.80	0.13427	1661334.0	1305926.0	766459.0	0.240709	0.532886
     29995.32	0.14083	1721318.0	1352814.0	794209.0	0.240903	0.532595
     29995.84	0.12900	1602549.0	1259709.0	739625.0	0.240715	0.532493
     29996.35	0.16361	1978135.0	1555379.0	913351.0	0.240435	0.532354
     29996.87	0.17727	2149890.0	1690302.0	992531.0	0.240509	0.532404
     29997.39	0.077082	916046.0	720331.0	423113.0	0.240356	0.532072
     29997.91	0.10685	1292674.0	1016456.0	596863.0	0.240391	0.532390
     29998.42	0.13115	1610164.0	1266190.0	743424.0	0.240324	0.532501
     29998.94	0.12951	1565002.0	1230661.0	722776.0	0.240336	0.532207
     29999.46	0.12095	1482198.0	1165628.0	684526.0	0.240266	0.532289
     29999.98	0.12385	1507550.0	1185453.0	696305.0	0.240361	0.532092
     30000.50	0.13286	1638406.0	1288258.0	756785.0	0.240433	0.531967
     30001.01	0.12562	1547658.0	1216757.0	714959.0	0.240554	0.531719
     30001.53	0.12003	1486740.0	1169547.0	687272.0	0.239969	0.531642
     30002.05	0.12681	1549769.0	1218888.0	716720.0	0.240167	0.531009
     30002.57	0.12775	1556646.0	1224280.0	719635.0	0.240181	0.531364
     30003.08	0.12808	1551305.0	1220305.0	717256.0	0.239996	0.531423
     30003.60	0.12785	1587094.0	1248491.0	733914.0	0.239969	0.531299
     30004.12	0.11784	1447150.0	1138599.0	669326.0	0.239798	0.531283
     30004.64	0.12372	1521689.0	1196870.0	703948.0	0.240111	0.530761
     30005.16	0.11077	1357859.0	1067557.0	627969.0	0.240536	0.530637
     30005.67	0.12149	1475474.0	1160623.0	682624.0	0.240022	0.530768
     30006.19	0.12488	1523084.0	1198618.0	704724.0	0.239568	0.531118
     30006.71	0.12473	1528354.0	1202565.0	707124.0	0.239735	0.531006
     30007.23	0.11664	1420530.0	1117732.0	657806.0	0.239728	0.530147
     30007.75	0.12322	1522715.0	1198188.0	704839.0	0.239685	0.530596
     30008.26	0.12391	1496758.0	1177874.0	693086.0	0.239590	0.530312
     30008.78	0.12334	1510189.0	1188724.0	699384.0	0.239354	0.530436
     30009.30	0.12933	1587642.0	1249595.0	735207.0	0.239430	0.530423
     30009.82	0.12677	1559366.0	1227024.0	722179.0	0.239688	0.530074
     30010.34	0.12649	1545786.0	1216403.0	716055.0	0.239634	0.529896
     30010.86	0.14038	1694637.0	1333782.0	785331.0	0.239450	0.529669
     30011.37	0.12542	1537110.0	1209558.0	711899.0	0.239649	0.530074
     30011.89	0.13022	1558834.0	1226594.0	721986.0	0.239697	0.529991
     30012.41	0.12490	1513704.0	1191703.0	701706.0	0.239176	0.529624
     30012.93	0.12026	1434667.0	1129124.0	664754.0	0.239491	0.529780
     30013.45	0.11758	1428468.0	1124322.0	662203.0	0.239422	0.529363
     30013.96	0.13245	1616456.0	1272411.0	749515.0	0.239323	0.529242
     30014.48	0.12316	1495974.0	1177603.0	693742.0	0.239296	0.529136
     30015.00	0.12797	1536974.0	1209795.0	713009.0	0.239365	0.528712
     30015.52	0.13928	1672274.0	1316324.0	775556.0	0.239341	0.529018
     30016.04	0.12241	1452654.0	1143797.0	674115.0	0.239039	0.528708
     30016.56	0.13156	1608239.0	1266195.0	745965.0	0.239123	0.529093
     30017.07	0.12204	1473183.0	1159711.0	683694.0	0.239255	0.528416
     30017.59	0.12848	1547255.0	1218063.0	717953.0	0.239221	0.528613
     30018.11	0.12306	1481199.0	1165931.0	687291.0	0.239332	0.528517
     30018.63	0.13806	1651404.0	1300167.0	766606.0	0.239133	0.528275
     30019.15	0.12743	1547077.0	1218084.0	718153.0	0.239088	0.528352
     30019.67	0.12291	1489255.0	1172785.0	691360.0	0.238895	0.528476
     30020.18	0.13548	1614990.0	1271658.0	749823.0	0.239007	0.528240
     30020.70	0.11964	1387967.0	1093397.0	644730.0	0.238551	0.528213
     30021.22	0.13548	1627786.0	1282075.0	756000.0	0.238741	0.528194
     30021.74	0.10979	1309882.0	1031452.0	608498.0	0.238970	0.527729
     30022.26	0.12526	1518275.0	1196067.0	705653.0	0.238536	0.527670
     30022.78	0.12867	1527869.0	1203409.0	710135.0	0.238716	0.527459
     30023.30	0.12497	1485764.0	1170110.0	690486.0	0.238831	0.527457
     30023.81	0.11006	1293981.0	1019325.0	601464.0	0.238583	0.527529
     30024.33	0.12492	1484352.0	1169344.0	689800.0	0.238535	0.527796
     30024.85	0.13267	1567468.0	1234532.0	728692.0	0.238770	0.527196
     30025.37	0.12530	1460941.0	1150814.0	679235.0	0.238611	0.527258
     30025.89	0.098265	1168012.0	920489.0	543175.0	0.238153	0.527473
     30026.41	0.098545	1186838.0	934995.0	552082.0	0.238507	0.526845
     30026.93	0.11468	1372973.0	1082064.0	638638.0	0.238108	0.527288
     30027.44	0.12532	1460602.0	1150680.0	679298.0	0.238496	0.527048
     30027.96	0.11820	1391863.0	1096830.0	647900.0	0.238219	0.526443
     30028.48	0.14302	1689094.0	1330991.0	785866.0	0.238269	0.526893
     30029.00	0.12433	1474074.0	1161594.0	686063.0	0.238237	0.526579
     30029.52	0.14543	1675813.0	1320820.0	780724.0	0.238046	0.525786
     30030.04	0.11084	1295762.0	1021161.0	603150.0	0.238159	0.526530
     30030.56	0.12797	1513231.0	1192383.0	704723.0	0.238293	0.525904
     30031.08	0.13306	1559392.0	1229076.0	726056.0	0.238033	0.526391
     30031.60	0.11737	1365879.0	1076237.0	636024.0	0.238327	0.525990
     30032.11	0.13978	1617078.0	1274433.0	753448.0	0.238119	0.525597
     30032.63	0.14340	1662447.0	1310106.0	774331.0	0.238183	0.525864
     30033.15	0.16281	1859904.0	1466563.0	866793.0	0.237603	0.525877
     30033.67	0.10595	1194115.0	941466.0	556955.0	0.237722	0.524954
     30034.19	0.097657	1100797.0	867800.0	513014.0	0.237828	0.525658
     30034.71	0.13448	1549431.0	1221452.0	722109.0	0.237847	0.525619
     30035.23	0.12254	1395535.0	1100275.0	650906.0	0.237718	0.524950
     30035.75	0.14001	1569164.0	1237325.0	731747.0	0.237591	0.525272
     30036.27	0.13099	1504343.0	1186160.0	701341.0	0.237635	0.525482
     30036.78	0.13894	1605184.0	1265124.0	748560.0	0.238068	0.524774
     30037.30	0.13962	1645740.0	1297754.0	768012.0	0.237555	0.524585
     30037.82	0.11922	1357803.0	1070389.0	633545.0	0.237846	0.524446
     30038.34	0.12422	1430121.0	1127378.0	667092.0	0.237864	0.524722
     30038.86	0.13375	1548476.0	1221209.0	722686.0	0.237430	0.524622
     30039.38	0.12525	1463583.0	1153920.0	683060.0	0.237723	0.524337
     30039.90	0.12758	1481304.0	1168502.0	691455.0	0.237200	0.524680
     30040.42	0.12438	1435667.0	1132267.0	670366.0	0.237408	0.524153
     30040.94	0.12125	1399169.0	1103606.0	653140.0	0.237295	0.524547
     30041.46	0.12446	1430875.0	1128609.0	668214.0	0.237300	0.524133
     30041.98	0.12946	1505050.0	1186645.0	702709.0	0.237696	0.523942
     30042.50	0.12807	1478206.0	1165634.0	690005.0	0.237564	0.524322
     30043.01	0.12711	1489501.0	1174989.0	695524.0	0.237182	0.524349
     30043.53	0.12257	1420792.0	1120895.0	664239.0	0.237087	0.523241
     30044.05	0.12551	1480987.0	1168055.0	692349.0	0.237369	0.523005
     30044.57	0.12177	1422084.0	1121946.0	664306.0	0.237059	0.524077
     30045.09	0.12245	1416947.0	1117800.0	662237.0	0.237142	0.523494
     30045.61	0.11650	1370925.0	1081214.0	640738.0	0.237401	0.523219
     30046.13	0.12187	1433624.0	1131341.0	670541.0	0.236802	0.523074
     30046.65	0.12231	1401265.0	1105705.0	655387.0	0.236892	0.523013
     30047.17	0.12195	1433295.0	1130889.0	670380.0	0.236972	0.522915
     30047.69	0.12418	1474879.0	1163426.0	689509.0	0.237207	0.523145
     30048.21	0.11478	1320338.0	1042088.0	617788.0	0.236661	0.522836
     30048.73	0.14149	1671370.0	1318712.0	781883.0	0.236988	0.522706
     30049.25	0.11412	1334145.0	1052812.0	624211.0	0.236826	0.522732
