# Diamond Light Source
# Instrument: B18-CORE XAS Date: Wed, 27 Jul 2016 22:42:31 BST
# Ring energy:   3.0
# Ring current - start: 300.7
# Primary slits:  vertical gap=  2.4; horizontal gap= 52.0; vertical offset=  0.4; horizontal offset= -1.0
# Secondary slits:  vertical gap=  3.5; horizontal gap= 23.0; vertical offset=  5.3; horizontal offset= -14.5
# OH Mirror Coating: Pt
# White beam filter: 140um PyC
# Crystal cut: Si(311)
# PostDCM slits:  vertical gap= 18.0; horizontal gap= 28.0; vertical offset= -9.1; horizontal offset= -16.5
# Experimental slits:  vertical gap= 28.6; horizontal gap= 45.0; vertical offset=  5.7; horizontal offset= -17.5
# HR Mirror : out; Y: 37.8; Pitch:  0.3; Coating: Pt
# Mirror 2: Pitch:  2.3; Height: -6.4; Yaw: -1.6; Bend:  0.8;
# I0 Stanford sensitivity: 20 nA/V Offsets: 20 pA
# It Stanford sensitivity: 100 nA/V Offsets: 1 pA
# Iref Stanford sensitivity: 20 nA/V Offsets: 1 pA
#
# Ascii output file name: 'Andrea_Sn//ascii/262882_PtSn_OC_Abu_1.dat'
# Nexus output file: '/dls/b18/data/2016/sp10306-9/Andrea_Sn//nexus/262882_PtSn_OC_Abu_1.nxs'
# XML folder and files:
# /dls/b18/data/2016/sp10306-9/xml/Andrea_Sn/
# QEXAFS_Parameters
# Sample_Parameters
# Detector_Parameters
# Output_Parameters
# The contents of these files are also stored in the nexus file.
#
# Sample name: PtSn_OC_Abu
# Sample description: default sample description
# Additional comments: default additional comments
# command: qexafs_energy 29000.0 30050.0 2094 263.53 qexafs_counterTimer01
#
#
# qexafs_energy	   time	       I0	       It	     Iref	  lnI0It	 lnItIref
     29000.24	0.13223	1905477.0	1495568.0	3106640.0	0.242226	-0.731036
     29000.73	0.16066	2337961.0	1835174.0	3813588.0	0.242140	-0.731431
     29001.21	0.16421	2436243.0	1912318.0	3971835.0	0.242141	-0.730912
     29001.69	0.082140	1202644.0	944416.0	1961974.0	0.241711	-0.731140
     29002.18	0.11307	1628338.0	1278570.0	2656396.0	0.241818	-0.731228
     29002.66	0.13420	1951218.0	1531726.0	3181726.0	0.242059	-0.731029
     29003.14	0.12955	1875122.0	1472273.0	3058683.0	0.241866	-0.731177
     29003.63	0.12268	1772043.0	1391099.0	2890608.0	0.242039	-0.731373
     29004.11	0.12600	1859763.0	1460135.0	3034414.0	0.241920	-0.731489
     29004.59	0.13678	2010905.0	1578897.0	3280910.0	0.241858	-0.731394
     29005.08	0.12360	1773545.0	1392427.0	2892816.0	0.241932	-0.731182
     29005.56	0.12626	1804729.0	1417314.0	2945519.0	0.241647	-0.731522
     29006.05	0.12510	1803379.0	1416253.0	2942181.0	0.241647	-0.731136
     29006.53	0.12106	1765406.0	1386415.0	2880450.0	0.241659	-0.731225
     29007.01	0.12825	1799559.0	1413139.0	2936706.0	0.241728	-0.731475
     29007.50	0.11934	1692536.0	1329267.0	2762029.0	0.241600	-0.731338
     29007.98	0.13929	2009324.0	1578140.0	3279098.0	0.241551	-0.731321
     29008.46	0.12831	1860084.0	1460935.0	3035701.0	0.241545	-0.731366
     29008.95	0.10851	1561028.0	1226111.0	2547318.0	0.241497	-0.731194
     29009.43	0.11071	1571341.0	1234477.0	2564890.0	0.241282	-0.731268
     29009.92	0.12458	1804364.0	1417333.0	2944455.0	0.241431	-0.731147
     29010.40	0.11841	1742777.0	1368758.0	2843447.0	0.241576	-0.731113
     29010.88	0.12029	1762176.0	1384594.0	2875475.0	0.241142	-0.730811
     29011.37	0.13544	1989892.0	1563297.0	3247911.0	0.241283	-0.731215
     29011.85	0.12897	1874643.0	1472630.0	3058910.0	0.241368	-0.731009
     29012.34	0.12022	1755719.0	1378948.0	2865779.0	0.241558	-0.731519
     29012.82	0.12656	1889825.0	1484695.0	3084564.0	0.241275	-0.731201
     29013.30	0.13694	2017385.0	1584865.0	3292961.0	0.241303	-0.731288
     29013.79	0.12888	1914525.0	1504205.0	3124682.0	0.241205	-0.731068
     29014.27	0.12147	1751694.0	1376167.0	2859550.0	0.241281	-0.731362
     29014.76	0.13581	1963386.0	1543000.0	3205492.0	0.240942	-0.731137
     29015.24	0.12636	1811142.0	1423221.0	2956957.0	0.241035	-0.731238
     29015.72	0.11946	1715510.0	1347913.0	2800825.0	0.241153	-0.731357
     29016.21	0.13076	1893551.0	1487790.0	3091441.0	0.241162	-0.731346
     29016.69	0.10987	1563764.0	1228906.0	2552765.0	0.240971	-0.731053
     29017.18	0.13111	1885581.0	1482087.0	3079540.0	0.240785	-0.731329
     29017.66	0.11812	1704192.0	1339456.0	2783471.0	0.240828	-0.731435
     29018.14	0.13453	1953871.0	1535434.0	3190531.0	0.240999	-0.731374
     29018.63	0.11863	1695544.0	1332689.0	2768527.0	0.240805	-0.731117
     29019.11	0.14182	2099652.0	1650286.0	3428640.0	0.240823	-0.731215
     29019.60	0.12534	1800032.0	1414733.0	2938897.0	0.240864	-0.731094
     29020.08	0.13096	1929430.0	1516641.0	3150981.0	0.240727	-0.731216
     29020.57	0.12268	1766891.0	1389009.0	2885996.0	0.240631	-0.731280
     29021.05	0.13134	1904547.0	1497078.0	3109891.0	0.240729	-0.731072
     29021.53	0.12228	1769998.0	1391111.0	2890378.0	0.240876	-0.731285
     29022.02	0.13289	1897591.0	1491555.0	3098467.0	0.240766	-0.731088
     29022.50	0.12949	1913270.0	1504306.0	3124820.0	0.240482	-0.731045
     29022.99	0.12823	1838817.0	1445685.0	3003320.0	0.240539	-0.731135
     29023.47	0.14098	1998924.0	1571661.0	3266011.0	0.240476	-0.731436
     29023.96	0.10664	1508046.0	1185761.0	2463568.0	0.240430	-0.731226
     29024.44	0.11467	1686792.0	1326448.0	2755828.0	0.240324	-0.731213
     29024.92	0.11837	1745386.0	1372437.0	2851730.0	0.240388	-0.731338
     29025.41	0.12496	1827800.0	1437130.0	2986287.0	0.240465	-0.731383
     29025.89	0.11664	1684924.0	1324840.0	2752335.0	0.240429	-0.731158
     29026.38	0.12611	1840296.0	1447423.0	3007394.0	0.240142	-0.731289
     29026.86	0.11984	1736262.0	1365339.0	2836887.0	0.240332	-0.731305
     29027.35	0.12894	1854002.0	1458067.0	3029609.0	0.240235	-0.731322
     29027.83	0.095500	1389527.0	1092749.0	2270264.0	0.240267	-0.731200
     29028.32	0.11308	1632023.0	1283195.0	2666857.0	0.240467	-0.731548
     29028.80	0.10858	1531213.0	1204246.0	2502934.0	0.240207	-0.731610
     29029.28	0.12023	1758736.0	1383327.0	2873874.0	0.240104	-0.731169
     29029.77	0.12937	1863070.0	1465215.0	3044414.0	0.240224	-0.731306
     29030.25	0.13785	2027807.0	1594980.0	3313776.0	0.240094	-0.731227
     29030.74	0.13012	1924778.0	1514318.0	3145262.0	0.239845	-0.730932
     29031.22	0.13276	1941830.0	1527791.0	3173849.0	0.239808	-0.731122
     29031.71	0.11817	1721089.0	1353541.0	2811947.0	0.240233	-0.731153
     29032.19	0.13122	1936495.0	1523443.0	3164712.0	0.239907	-0.731089
     29032.68	0.12345	1808559.0	1422658.0	2955960.0	0.240003	-0.731297
     29033.16	0.12557	1861357.0	1463774.0	3041466.0	0.240288	-0.731322
     29033.65	0.14902	2161869.0	1700548.0	3533082.0	0.240023	-0.731220
     29034.13	0.12685	1883548.0	1482028.0	3079283.0	0.239746	-0.731285
     29034.62	0.15876	2345286.0	1845181.0	3832478.0	0.239830	-0.730934
     29035.10	0.095625	1427904.0	1122978.0	2333405.0	0.240224	-0.731344
     29035.58	0.10796	1612474.0	1268888.0	2635703.0	0.239629	-0.731009
     29036.07	0.13439	2001068.0	1574316.0	3270398.0	0.239860	-0.731091
     29036.55	0.13026	1944419.0	1530342.0	3178534.0	0.239472	-0.730929
     29037.04	0.13019	1969002.0	1549337.0	3218244.0	0.239700	-0.731009
     29037.52	0.13708	2054349.0	1616769.0	3357936.0	0.239529	-0.730897
     29038.01	0.13881	2075544.0	1633173.0	3391855.0	0.239699	-0.730852
     29038.49	0.13855	2085163.0	1640677.0	3407932.0	0.239738	-0.730997
     29038.98	0.12749	1908835.0	1502263.0	3119688.0	0.239520	-0.730760
     29039.46	0.12547	1912065.0	1505249.0	3125977.0	0.239225	-0.730789
     29039.95	0.12442	1865614.0	1468655.0	3050039.0	0.239243	-0.730807
     29040.43	0.12887	1921241.0	1512189.0	3140658.0	0.239413	-0.730874
     29040.92	0.14107	2125258.0	1672826.0	3474339.0	0.239379	-0.730890
     29041.40	0.12171	1820039.0	1432640.0	2975055.0	0.239339	-0.730744
     29041.89	0.13131	1977148.0	1556494.0	3232901.0	0.239220	-0.730944
     29042.37	0.11822	1763937.0	1388511.0	2884471.0	0.239316	-0.731110
     29042.86	0.12247	1811728.0	1426027.0	2962385.0	0.239389	-0.731102
     29043.34	0.12759	1913316.0	1506379.0	3128180.0	0.239129	-0.730743
     29043.83	0.12763	1918986.0	1510980.0	3138142.0	0.239038	-0.730872
     29044.31	0.13137	2009135.0	1581631.0	3284039.0	0.239248	-0.730617
     29044.80	0.11746	1750033.0	1377667.0	2861079.0	0.239243	-0.730807
     29045.28	0.12516	1922266.0	1513419.0	3142288.0	0.239133	-0.730580
     29045.77	0.11812	1751775.0	1379370.0	2864401.0	0.239003	-0.730732
     29046.25	0.12164	1802500.0	1419115.0	2947131.0	0.239141	-0.730799
     29046.74	0.12036	1811452.0	1425892.0	2961731.0	0.239331	-0.730976
     29047.22	0.11841	1756383.0	1382547.0	2871383.0	0.239329	-0.730866
     29047.71	0.12222	1826128.0	1437782.0	2985898.0	0.239096	-0.730799
     29048.19	0.11757	1762191.0	1387586.0	2882274.0	0.238992	-0.731014
     29048.68	0.11852	1780035.0	1401771.0	2911492.0	0.238897	-0.730929
     29049.16	0.13780	2047956.0	1612507.0	3348511.0	0.239052	-0.730726
     29049.65	0.11498	1701233.0	1339245.0	2781114.0	0.239247	-0.730746
     29050.13	0.13059	1950226.0	1535727.0	3188878.0	0.238941	-0.730665
     29050.62	0.13904	2048426.0	1613327.0	3350083.0	0.238773	-0.730687
     29051.10	0.12094	1838117.0	1447749.0	3005388.0	0.238732	-0.730397
     29051.59	0.12194	1804762.0	1421995.0	2952583.0	0.238368	-0.730620
     29052.08	0.14667	2199205.0	1732491.0	3596754.0	0.238536	-0.730472
     29052.56	0.11702	1758314.0	1384697.0	2874720.0	0.238874	-0.730474
     29053.05	0.12294	1837038.0	1447025.0	3004748.0	0.238645	-0.730684
     29053.53	0.12149	1821528.0	1434810.0	2978082.0	0.238643	-0.730247
     29054.02	0.12433	1862994.0	1467576.0	3046579.0	0.238573	-0.730407
     29054.50	0.12401	1860605.0	1465774.0	3042538.0	0.238518	-0.730309
     29054.99	0.12884	1931480.0	1521167.0	3157536.0	0.238809	-0.730314
     29055.47	0.12840	1954155.0	1539639.0	3195651.0	0.238410	-0.730243
     29055.96	0.12331	1832495.0	1443280.0	2997121.0	0.238760	-0.730734
     29056.44	0.13562	2023696.0	1594288.0	3308988.0	0.238498	-0.730215
     29056.93	0.12128	1757526.0	1384592.0	2875206.0	0.238502	-0.730719
     29057.41	0.13216	1962393.0	1545453.0	3208414.0	0.238848	-0.730460
     29057.90	0.13315	1978479.0	1558733.0	3235408.0	0.238455	-0.730282
     29058.39	0.12872	1905519.0	1501357.0	3116292.0	0.238385	-0.730274
     29058.87	0.12111	1804054.0	1421356.0	2951269.0	0.238425	-0.730624
     29059.36	0.13643	2040990.0	1608413.0	3338367.0	0.238187	-0.730234
     29059.84	0.12141	1826820.0	1439662.0	2987433.0	0.238168	-0.730006
     29060.33	0.14262	2137351.0	1684184.0	3495681.0	0.238286	-0.730247
     29060.81	0.11055	1643709.0	1295219.0	2688318.0	0.238275	-0.730236
     29061.30	0.11397	1698228.0	1338507.0	2777461.0	0.238031	-0.729982
     29061.78	0.13303	2000542.0	1576328.0	3271576.0	0.238320	-0.730174
     29062.27	0.11156	1673245.0	1318972.0	2736980.0	0.237912	-0.730002
     29062.76	0.13319	1990246.0	1568447.0	3255240.0	0.238172	-0.730180
     29063.24	0.11131	1633149.0	1287090.0	2671822.0	0.238126	-0.730377
     29063.73	0.14405	2150166.0	1694791.0	3516659.0	0.237986	-0.729952
     29064.21	0.15551	2316804.0	1826133.0	3789797.0	0.237988	-0.730112
     29064.70	0.085575	1264103.0	996250.0	2068311.0	0.238120	-0.730489
     29065.18	0.097342	1457294.0	1148479.0	2382800.0	0.238143	-0.729838
     29065.67	0.099057	1489800.0	1174433.0	2437391.0	0.237856	-0.730143
     29066.16	0.11160	1651928.0	1301846.0	2701550.0	0.238160	-0.730042
     29066.64	0.12768	1916013.0	1510427.0	3133730.0	0.237854	-0.729832
     29067.13	0.11256	1689561.0	1332245.0	2763761.0	0.237603	-0.729727
     29067.61	0.12881	1959188.0	1544515.0	3204146.0	0.237820	-0.729736
     29068.10	0.18946	2852312.0	2248818.0	4665591.0	0.237725	-0.729810
     29068.59	0.085778	1304501.0	1028725.0	2133661.0	0.237500	-0.729519
     29069.07	0.11605	1756060.0	1384351.0	2872110.0	0.237841	-0.729816
     29069.56	0.11167	1676198.0	1321767.0	2742219.0	0.237559	-0.729798
     29070.04	0.13333	2028873.0	1599452.0	3317310.0	0.237819	-0.729493
     29070.53	0.13286	1994087.0	1572207.0	3261974.0	0.237706	-0.729852
     29071.01	0.13547	2046022.0	1613313.0	3346398.0	0.237608	-0.729595
     29071.50	0.14662	2217793.0	1748566.0	3626958.0	0.237717	-0.729598
     29071.99	0.18206	2731611.0	2153958.0	4467949.0	0.237584	-0.729622
     29072.47	0.077167	1177460.0	928380.0	1925456.0	0.237674	-0.729477
     29072.96	0.10638	1613973.0	1272792.0	2638892.0	0.237486	-0.729146
     29073.44	0.12215	1823674.0	1438121.0	2982940.0	0.237516	-0.729572
     29073.93	0.13638	2088597.0	1647247.0	3415442.0	0.237387	-0.729202
     29074.42	0.13016	1963332.0	1548316.0	3211096.0	0.237475	-0.729444
     29074.90	0.13684	2043629.0	1611421.0	3341361.0	0.237611	-0.729262
     29075.39	0.14374	2164413.0	1707301.0	3539428.0	0.237235	-0.729051
     29075.87	0.16737	2494978.0	1967795.0	4080101.0	0.237366	-0.729208
     29076.36	0.10848	1631846.0	1286840.0	2668616.0	0.237522	-0.729370
     29076.85	0.10913	1639799.0	1293585.0	2681300.0	0.237156	-0.728884
     29077.33	0.13669	2049185.0	1616444.0	3350211.0	0.237213	-0.728795
     29077.82	0.13444	2026748.0	1598752.0	3314295.0	0.237209	-0.729022
     29078.31	0.12473	1893160.0	1493153.0	3095393.0	0.237357	-0.729025
     29078.79	0.12747	1917402.0	1512704.0	3134355.0	0.237072	-0.728525
     29079.28	0.14620	2245763.0	1771169.0	3671083.0	0.237406	-0.728847
     29079.76	0.11782	1760203.0	1388616.0	2877049.0	0.237122	-0.728458
     29080.25	0.11137	1658650.0	1308318.0	2711911.0	0.237262	-0.728911
     29080.74	0.11931	1791922.0	1413704.0	2928931.0	0.237076	-0.728424
     29081.22	0.13196	2011779.0	1587076.0	3288182.0	0.237126	-0.728441
     29081.71	0.12300	1869930.0	1475263.0	3057034.0	0.237065	-0.728609
     29082.20	0.13421	2047260.0	1614932.0	3345898.0	0.237209	-0.728442
     29082.68	0.12369	1846016.0	1456262.0	3018240.0	0.237157	-0.728801
     29083.17	0.11763	1768264.0	1395382.0	2890101.0	0.236830	-0.728123
     29083.65	0.12844	1964317.0	1550403.0	3210730.0	0.236630	-0.727983
     29084.14	0.11895	1814670.0	1431895.0	2965575.0	0.236905	-0.728072
     29084.63	0.11642	1783161.0	1406775.0	2912980.0	0.237088	-0.727877
     29085.11	0.11434	1742594.0	1374860.0	2847200.0	0.237023	-0.727984
     29085.60	0.12991	1955536.0	1543078.0	3195860.0	0.236885	-0.728077
     29086.09	0.11656	1762982.0	1391352.0	2880508.0	0.236731	-0.727691
     29086.57	0.12759	1929751.0	1522795.0	3152542.0	0.236844	-0.727662
     29087.06	0.12692	1925589.0	1519416.0	3145307.0	0.236906	-0.727585
     29087.55	0.12572	1914622.0	1511016.0	3128472.0	0.236738	-0.727762
     29088.03	0.12291	1860098.0	1467915.0	3038340.0	0.236786	-0.727468
     29088.52	0.13192	2001918.0	1580195.0	3270715.0	0.236557	-0.727460
     29089.01	0.12610	1920149.0	1515524.0	3137215.0	0.236642	-0.727574
     29089.49	0.13165	2004936.0	1582663.0	3275962.0	0.236503	-0.727503
     29089.98	0.12457	1889669.0	1491304.0	3086771.0	0.236751	-0.727475
     29090.47	0.12855	1945927.0	1535841.0	3178971.0	0.236660	-0.727479
     29090.95	0.12330	1857323.0	1466169.0	3033590.0	0.236483	-0.727094
     29091.44	0.12940	1971571.0	1556322.0	3220009.0	0.236505	-0.727059
     29091.93	0.11443	1722497.0	1359834.0	2813628.0	0.236412	-0.727112
     29092.41	0.13114	1983136.0	1565463.0	3238335.0	0.236498	-0.726878
     29092.90	0.12496	1896914.0	1497513.0	3097225.0	0.236423	-0.726701
     29093.39	0.13091	1969848.0	1555283.0	3217432.0	0.236299	-0.726926
     29093.87	0.12374	1893674.0	1495302.0	3091778.0	0.236191	-0.726418
     29094.36	0.13725	2062352.0	1627865.0	3365704.0	0.236578	-0.726368
     29094.85	0.12175	1816514.0	1434111.0	2966133.0	0.236374	-0.726714
     29095.33	0.14128	2122068.0	1675215.0	3463757.0	0.236450	-0.726412
     29095.82	0.11377	1697410.0	1340590.0	2770419.0	0.235994	-0.725889
     29096.31	0.13087	1953249.0	1541930.0	3187537.0	0.236459	-0.726214
     29096.79	0.13263	1997071.0	1577123.0	3259615.0	0.236079	-0.726007
     29097.28	0.12204	1836687.0	1450337.0	2997379.0	0.236167	-0.725942
     29097.77	0.14183	2106419.0	1663865.0	3437314.0	0.235846	-0.725547
     29098.25	0.12097	1829529.0	1445104.0	2985607.0	0.235877	-0.725622
     29098.74	0.12136	1814381.0	1432681.0	2960221.0	0.236197	-0.725716
     29099.23	0.12254	1839238.0	1452336.0	2999669.0	0.236178	-0.725329
     29099.71	0.12960	1938873.0	1531214.0	3163583.0	0.236046	-0.725644
     29100.20	0.11751	1775834.0	1402395.0	2896822.0	0.236089	-0.725433
     29100.69	0.12683	1924492.0	1519690.0	3138182.0	0.236156	-0.725137
     29101.17	0.12269	1882240.0	1486548.0	3069359.0	0.236006	-0.725012
     29101.66	0.12561	1914681.0	1511676.0	3121549.0	0.236332	-0.725110
     29102.15	0.11600	1734048.0	1369433.0	2827558.0	0.236062	-0.725017
     29102.64	0.11589	1748756.0	1381459.0	2851939.0	0.235764	-0.724859
     29103.12	0.11106	1680012.0	1327210.0	2739456.0	0.235722	-0.724680
     29103.61	0.11039	1678749.0	1325925.0	2735735.0	0.235939	-0.724290
     29104.10	0.11352	1692999.0	1337251.0	2759765.0	0.235885	-0.724530
     29104.58	0.11526	1709758.0	1350549.0	2786641.0	0.235841	-0.724326
     29105.07	0.12338	1853536.0	1464334.0	3020438.0	0.235695	-0.724001
     29105.56	0.11507	1740760.0	1375218.0	2836511.0	0.235710	-0.723963
     29106.04	0.11731	1756366.0	1387799.0	2862586.0	0.235528	-0.724006
     29106.53	0.14969	2224493.0	1756920.0	3622648.0	0.235967	-0.723643
     29107.02	0.11278	1693247.0	1337872.0	2757894.0	0.235568	-0.723387
     29107.51	0.12224	1847231.0	1459165.0	3008554.0	0.235823	-0.723595
     29107.99	0.13081	1970051.0	1556257.0	3207497.0	0.235776	-0.723207
     29108.48	0.12684	1892091.0	1495220.0	3080769.0	0.235409	-0.722906
     29108.97	0.14160	2110957.0	1667778.0	3435788.0	0.235649	-0.722754
     29109.46	0.12907	1938451.0	1531566.0	3154638.0	0.235598	-0.722583
     29109.94	0.11875	1769915.0	1397921.0	2879961.0	0.235945	-0.722791
     29110.43	0.14214	2126454.0	1680352.0	3460493.0	0.235453	-0.722408
     29110.92	0.12216	1844936.0	1457711.0	3001427.0	0.235577	-0.722220
     29111.40	0.12137	1807179.0	1427911.0	2939630.0	0.235555	-0.722071
     29111.89	0.12948	1966173.0	1553465.0	3196802.0	0.235601	-0.721663
     29112.38	0.12927	1923359.0	1519650.0	3127191.0	0.235593	-0.721655
     29112.87	0.13739	2068622.0	1635023.0	3363527.0	0.235226	-0.721333
     29113.35	0.13549	2050644.0	1620136.0	3332957.0	0.235644	-0.721350
     29113.84	0.12583	1881475.0	1486704.0	3057301.0	0.235494	-0.720971
     29114.33	0.15267	2286850.0	1807221.0	3715639.0	0.235385	-0.720760
     29114.82	0.11743	1761160.0	1391769.0	2861036.0	0.235397	-0.720608
     29115.30	0.13198	1981140.0	1565748.0	3218003.0	0.235309	-0.720397
     29115.79	0.12536	1884246.0	1489034.0	3059028.0	0.235400	-0.719970
     29116.28	0.14569	2187802.0	1728959.0	3552172.0	0.235378	-0.720040
     29116.77	0.13709	2063479.0	1630841.0	3349652.0	0.235298	-0.719761
     29117.25	0.13393	1991555.0	1573813.0	3231839.0	0.235414	-0.719550
     29117.74	0.11754	1740203.0	1375487.0	2824019.0	0.235194	-0.719353
     29118.23	0.12370	1833285.0	1449202.0	2974240.0	0.235096	-0.718975
     29118.72	0.12136	1798183.0	1421259.0	2916650.0	0.235234	-0.718893
     29119.20	0.12209	1802534.0	1424923.0	2922597.0	0.235076	-0.718355
     29119.69	0.13043	1931186.0	1525775.0	3128949.0	0.235632	-0.718195
     29120.18	0.11474	1712815.0	1354010.0	2775872.0	0.235068	-0.717894
     29120.67	0.13480	2010827.0	1589083.0	3256228.0	0.235389	-0.717412
     29121.15	0.12670	1922677.0	1519787.0	3113998.0	0.235148	-0.717337
     29121.64	0.11884	1776150.0	1403932.0	2876182.0	0.235171	-0.717187
     29122.13	0.12328	1848116.0	1460655.0	2991460.0	0.235282	-0.716877
     29122.62	0.12487	1846416.0	1459598.0	2988727.0	0.235085	-0.716686
     29123.10	0.11384	1704553.0	1347185.0	2756478.0	0.235286	-0.715937
     29123.59	0.13042	1938701.0	1532113.0	3135016.0	0.235370	-0.715986
     29124.08	0.10720	1601887.0	1266352.0	2590626.0	0.235042	-0.715759
     29124.57	0.11923	1794880.0	1418896.0	2901794.0	0.235059	-0.715450
     29125.06	0.12962	1942114.0	1534795.0	3138291.0	0.235380	-0.715282
     29125.54	0.11683	1724831.0	1363803.0	2787207.0	0.234852	-0.714763
     29126.03	0.12364	1866780.0	1475557.0	3015040.0	0.235179	-0.714578
     29126.52	0.13528	2009052.0	1588318.0	3244045.0	0.234987	-0.714145
     29127.01	0.11860	1758241.0	1390048.0	2838396.0	0.234976	-0.713901
     29127.49	0.13245	1960913.0	1549993.0	3163783.0	0.235160	-0.713518
     29127.98	0.13416	1980034.0	1565188.0	3193716.0	0.235108	-0.713179
     29128.47	0.13381	1971542.0	1558816.0	3179228.0	0.234889	-0.712712
     29128.96	0.13066	1938011.0	1532321.0	3124343.0	0.234879	-0.712440
     29129.45	0.10816	1600902.0	1265691.0	2579593.0	0.234949	-0.712013
     29129.93	0.14330	2104573.0	1664290.0	3390024.0	0.234714	-0.711438
     29130.42	0.11213	1660976.0	1312669.0	2673508.0	0.235343	-0.711329
     29130.91	0.12818	1937201.0	1531450.0	3117489.0	0.235029	-0.710813
     29131.40	0.11396	1706994.0	1349208.0	2745551.0	0.235216	-0.710464
     29131.89	0.12538	1858224.0	1469015.0	2987739.0	0.235029	-0.709925
     29132.37	0.12962	1921414.0	1519293.0	3088668.0	0.234816	-0.709495
     29132.86	0.13059	1959398.0	1549193.0	3147726.0	0.234903	-0.708946
     29133.35	0.12407	1851626.0	1463892.0	2973331.0	0.234966	-0.708584
     29133.84	0.12884	1891546.0	1495407.0	3036272.0	0.234996	-0.708232
     29134.33	0.12909	1928931.0	1524940.0	3094180.0	0.235011	-0.707568
     29134.81	0.12954	1911860.0	1511939.0	3066211.0	0.234684	-0.707050
     29135.30	0.12168	1806437.0	1427942.0	2895176.0	0.235122	-0.706812
     29135.79	0.13283	1957839.0	1548007.0	3136805.0	0.234873	-0.706236
     29136.28	0.12493	1863823.0	1473657.0	2984575.0	0.234883	-0.705710
     29136.77	0.12797	1922459.0	1519604.0	3077406.0	0.235155	-0.705637
     29137.25	0.13872	2066421.0	1633647.0	3305260.0	0.235003	-0.704700
     29137.74	0.11743	1767098.0	1396652.0	2824580.0	0.235261	-0.704282
     29138.23	0.12907	1916923.0	1515335.0	3063224.0	0.235085	-0.703831
     29138.72	0.12236	1763074.0	1393908.0	2815743.0	0.234948	-0.703115
     29139.21	0.12557	1858268.0	1469120.0	2966170.0	0.234981	-0.702608
     29139.70	0.12140	1813373.0	1433835.0	2893272.0	0.234836	-0.702035
     29140.18	0.12407	1842376.0	1456353.0	2936695.0	0.235121	-0.701349
     29140.67	0.13070	1971304.0	1558445.0	3140479.0	0.235007	-0.700687
     29141.16	0.11765	1765439.0	1395660.0	2811822.0	0.235032	-0.700465
     29141.65	0.12708	1905512.0	1505844.0	3031202.0	0.235397	-0.699606
     29142.14	0.11706	1773064.0	1401654.0	2819811.0	0.235056	-0.699017
     29142.63	0.11327	1683603.0	1330845.0	2675031.0	0.235122	-0.698147
     29143.11	0.11581	1730141.0	1367808.0	2747944.0	0.234993	-0.697644
     29143.60	0.11585	1733770.0	1370715.0	2751331.0	0.234966	-0.696752
     29144.09	0.11001	1660543.0	1312421.0	2633052.0	0.235271	-0.696270
     29144.58	0.12133	1850406.0	1462413.0	2931259.0	0.235317	-0.695344
     29145.07	0.11194	1647836.0	1302595.0	2609149.0	0.235104	-0.694666
     29145.56	0.12180	1811587.0	1431733.0	2865355.0	0.235318	-0.693807
     29146.04	0.12282	1828530.0	1445031.0	2889510.0	0.235382	-0.692956
     29146.53	0.13773	2066444.0	1633290.0	3263854.0	0.235233	-0.692312
     29147.02	0.11800	1771319.0	1399418.0	2794145.0	0.235668	-0.691470
     29147.51	0.11812	1746415.0	1380119.0	2752733.0	0.235395	-0.690425
     29148.00	0.13833	2059384.0	1627600.0	3243708.0	0.235300	-0.689611
     29148.49	0.12706	1921541.0	1518630.0	3023175.0	0.235319	-0.688499
     29148.98	0.13055	1932881.0	1527228.0	3037791.0	0.235557	-0.687676
     29149.46	0.12370	1873221.0	1480260.0	2942486.0	0.235442	-0.687037
     29149.95	0.18417	2730129.0	2156785.0	4281854.0	0.235730	-0.685767
     29150.44	0.087099	1286800.0	1016783.0	2016075.0	0.235515	-0.684509
     29150.93	0.12342	1833452.0	1448646.0	2870179.0	0.235571	-0.683745
     29151.42	0.12569	1860567.0	1470123.0	2908678.0	0.235535	-0.682353
     29151.91	0.13210	1957560.0	1547040.0	3057878.0	0.235355	-0.681378
     29152.40	0.13354	1962974.0	1550405.0	3061038.0	0.235944	-0.680238
     29152.88	0.12934	1938834.0	1531478.0	3020142.0	0.235853	-0.679071
     29153.37	0.13320	1972986.0	1558367.0	3068924.0	0.235910	-0.677689
     29153.86	0.17113	2556480.0	2019454.0	3970612.0	0.235804	-0.676093
     29154.35	0.10589	1556105.0	1228997.0	2413486.0	0.235988	-0.674874
     29154.84	0.11079	1667354.0	1317028.0	2582863.0	0.235860	-0.673521
     29155.33	0.15104	2231557.0	1762514.0	3452077.0	0.235958	-0.672235
     29155.82	0.11800	1751604.0	1383278.0	2705361.0	0.236076	-0.670779
     29156.31	0.12911	1911685.0	1509846.0	2947458.0	0.235977	-0.668935
     29156.79	0.13767	2022091.0	1596888.0	3112919.0	0.236075	-0.667504
     29157.28	0.12923	1926689.0	1521368.0	2960804.0	0.236193	-0.665851
     29157.77	0.12554	1875562.0	1481005.0	2877429.0	0.236187	-0.664176
     29158.26	0.14185	2104953.0	1661811.0	3223798.0	0.236385	-0.662652
     29158.75	0.11389	1672344.0	1320161.0	2556231.0	0.236473	-0.660780
     29159.24	0.12280	1831727.0	1445793.0	2793603.0	0.236601	-0.658674
     29159.73	0.12055	1818447.0	1435184.0	2767071.0	0.236690	-0.656496
     29160.22	0.13040	1959070.0	1546338.0	2975458.0	0.236580	-0.654508
     29160.71	0.12431	1863287.0	1469990.0	2822700.0	0.237087	-0.652438
     29161.19	0.13067	1945992.0	1535625.0	2941702.0	0.236834	-0.650051
     29161.68	0.12723	1906452.0	1504232.0	2875094.0	0.236961	-0.647803
     29162.17	0.12843	1917385.0	1512731.0	2884307.0	0.237046	-0.645368
     29162.66	0.11540	1735073.0	1368811.0	2603439.0	0.237107	-0.642891
     29163.15	0.13508	1969270.0	1553102.0	2945042.0	0.237409	-0.639869
     29163.64	0.11954	1756498.0	1385468.0	2620360.0	0.237284	-0.637274
     29164.13	0.11211	1678558.0	1323348.0	2495445.0	0.237770	-0.634302
     29164.62	0.12159	1792707.0	1413484.0	2656976.0	0.237669	-0.631131
     29165.11	0.12283	1798831.0	1418068.0	2656452.0	0.237842	-0.627696
     29165.60	0.12587	1870998.0	1474534.0	2752557.0	0.238130	-0.624188
     29166.09	0.11799	1758329.0	1385401.0	2577539.0	0.238374	-0.620845
     29166.57	0.12352	1847226.0	1455251.0	2696797.0	0.238507	-0.616886
     29167.06	0.13277	1981850.0	1561310.0	2881528.0	0.238506	-0.612795
     29167.55	0.12948	1932265.0	1521726.0	2796854.0	0.238848	-0.608650
     29168.04	0.13921	2090400.0	1646123.0	3011713.0	0.238933	-0.604086
     29168.53	0.12119	1805642.0	1421489.0	2587951.0	0.239211	-0.599162
     29169.02	0.13156	1944173.0	1529921.0	2770690.0	0.239621	-0.593880
     29169.51	0.12666	1870889.0	1471917.0	2650342.0	0.239848	-0.588123
     29170.00	0.12365	1858204.0	1461445.0	2617307.0	0.240185	-0.582720
     29170.49	0.12473	1877608.0	1476448.0	2627805.0	0.240359	-0.576510
     29170.98	0.12050	1791144.0	1407837.0	2488398.0	0.240800	-0.569585
     29171.47	0.12304	1828384.0	1436855.0	2521516.0	0.240976	-0.562404
     29171.96	0.12081	1813843.0	1425041.0	2482180.0	0.241247	-0.554937
     29172.45	0.12887	1934953.0	1519503.0	2625446.0	0.241700	-0.546867
     29172.94	0.12017	1777845.0	1395308.0	2388456.0	0.242287	-0.537532
     29173.42	0.13445	2006510.0	1574274.0	2669891.0	0.242603	-0.528243
     29173.91	0.12197	1802712.0	1414090.0	2372088.0	0.242806	-0.517284
     29174.40	0.13503	2011535.0	1576900.0	2616300.0	0.243437	-0.506300
     29174.89	0.13194	1949977.0	1527562.0	2502421.0	0.244145	-0.493586
     29175.38	0.12730	1906688.0	1493211.0	2415427.0	0.244439	-0.480947
     29175.87	0.13127	1909625.0	1494409.0	2379074.0	0.245176	-0.464981
     29176.36	0.12647	1890856.0	1479332.0	2320025.0	0.245439	-0.449987
     29176.85	0.12921	1945774.0	1521168.0	2343365.0	0.246181	-0.432109
     29177.34	0.13630	2036086.0	1589995.0	2400881.0	0.247298	-0.412105
     29177.83	0.11234	1675693.0	1307373.0	1933234.0	0.248207	-0.391174
     29178.32	0.12505	1881768.0	1467026.0	2119627.0	0.248975	-0.368003
     29178.81	0.12287	1821976.0	1418465.0	1992948.0	0.250346	-0.340040
     29179.30	0.11581	1728997.0	1344707.0	1835104.0	0.251365	-0.310925
     29179.79	0.12497	1865254.0	1449050.0	1910484.0	0.252489	-0.276448
     29180.28	0.12860	1943431.0	1507851.0	1915721.0	0.253770	-0.239409
     29180.77	0.12171	1815828.0	1406535.0	1710875.0	0.255412	-0.195876
     29181.26	0.12531	1883172.0	1456573.0	1696905.0	0.256871	-0.152720
     29181.75	0.10869	1623032.0	1252764.0	1378644.0	0.258944	-0.0957481
     29182.24	0.11358	1688752.0	1300435.0	1347056.0	0.261291	-0.0352226
     29182.73	0.11792	1764469.0	1355594.0	1315781.0	0.263610	0.0298093
     29183.22	0.11618	1729423.0	1325301.0	1198930.0	0.266148	0.100210
     29183.71	0.11737	1751199.0	1337629.0	1123667.0	0.269402	0.174301
     29184.20	0.11185	1668224.0	1270420.0	989821.0	0.272412	0.249579
     29184.68	0.14588	2177348.0	1652072.0	1180419.0	0.276077	0.336161
     29185.17	0.10259	1523923.0	1152275.0	761496.0	0.279550	0.414209
     29185.66	0.12065	1812624.0	1363916.0	831234.0	0.284416	0.495204
     29186.15	0.12310	1808566.0	1354684.0	762555.0	0.288966	0.574649
     29186.64	0.12344	1860547.0	1387034.0	734346.0	0.293703	0.635943
     29187.13	0.12969	1910556.0	1416647.0	701741.0	0.299101	0.702484
     29187.62	0.14560	2151667.0	1586225.0	742299.0	0.304886	0.759360
     29188.11	0.12013	1762728.0	1291375.0	577322.0	0.311155	0.805063
     29188.60	0.12932	1937279.0	1410586.0	607741.0	0.317279	0.842012
     29189.09	0.12249	1791443.0	1295970.0	544423.0	0.323762	0.867288
     29189.58	0.13856	2052142.0	1474900.0	608428.0	0.330294	0.885467
     29190.07	0.12487	1848800.0	1319966.0	539795.0	0.336931	0.894172
     29190.56	0.12376	1831723.0	1299771.0	531464.0	0.343069	0.894308
     29191.05	0.13258	1963636.0	1384834.0	569214.0	0.349218	0.889079
     29191.54	0.13441	2001921.0	1404678.0	582876.0	0.354299	0.879589
     29192.03	0.13647	1994252.0	1392670.0	586544.0	0.359046	0.864730
     29192.52	0.13232	1954934.0	1359898.0	581378.0	0.362947	0.849764
     29193.01	0.12805	1905560.0	1321953.0	575115.0	0.365666	0.832295
     29193.50	0.13854	2047813.0	1417630.0	628650.0	0.367786	0.813167
     29193.99	0.12385	1831725.0	1267117.0	571156.0	0.368514	0.796837
     29194.48	0.13874	2018020.0	1395365.0	640306.0	0.368961	0.778965
     29194.97	0.12524	1818664.0	1258827.0	587017.0	0.367922	0.762882
     29195.46	0.13943	2079624.0	1441259.0	681197.0	0.366670	0.749421
     29195.95	0.12266	1807873.0	1255289.0	601808.0	0.364785	0.735183
     29196.44	0.13009	1888292.0	1313842.0	637749.0	0.362717	0.722766
     29196.93	0.11855	1711338.0	1194173.0	585921.0	0.359822	0.712024
     29197.42	0.12894	1900662.0	1330487.0	658686.0	0.356657	0.703053
     29197.92	0.12735	1863232.0	1308109.0	653328.0	0.353730	0.694259
     29198.41	0.12444	1811314.0	1275380.0	641895.0	0.350808	0.686575
     29198.90	0.12828	1859860.0	1313687.0	664768.0	0.347664	0.681155
     29199.39	0.12296	1788710.0	1267028.0	644343.0	0.344821	0.676198
     29199.88	0.12661	1857990.0	1319445.0	673378.0	0.342284	0.672660
     29200.37	0.12927	1936521.0	1378798.0	705910.0	0.339681	0.669480
     29200.86	0.11427	1669283.0	1191707.0	611589.0	0.337007	0.667082
     29201.35	0.12955	1834198.0	1312151.0	674184.0	0.334940	0.665920
     29201.84	0.12052	1755351.0	1258183.0	646726.0	0.333000	0.665501
     29202.33	0.12348	1771131.0	1272027.0	653548.0	0.331007	0.665951
     29202.82	0.11694	1658593.0	1192902.0	612783.0	0.329581	0.666133
     29203.31	0.13008	1868281.0	1345665.0	689872.0	0.328130	0.668138
     29203.80	0.11489	1662401.0	1198932.0	613542.0	0.326832	0.669938
     29204.29	0.13192	1955566.0	1412151.0	720512.0	0.325566	0.672907
     29204.78	0.11520	1640776.0	1185974.0	603040.0	0.324605	0.676336
     29205.27	0.11739	1704795.0	1233629.0	625394.0	0.323485	0.679334
     29205.76	0.12980	1904010.0	1378488.0	696579.0	0.322975	0.682561
     29206.25	0.13681	2017912.0	1462195.0	736550.0	0.322125	0.685717
     29206.74	0.11935	1714971.0	1243531.0	623899.0	0.321441	0.689722
     29207.23	0.13368	1927440.0	1398656.0	699460.0	0.320681	0.692958
     29207.72	0.13270	1934485.0	1404741.0	700697.0	0.319988	0.695533
     29208.21	0.11780	1758964.0	1277789.0	635532.0	0.319594	0.698424
     29208.70	0.12213	1749251.0	1271183.0	631306.0	0.319240	0.699913
     29209.19	0.13480	1942939.0	1412565.0	700305.0	0.318795	0.701647
     29209.69	0.11542	1667499.0	1212871.0	600060.0	0.318335	0.703716
     29210.18	0.12803	1863518.0	1355871.0	670080.0	0.318022	0.704802
     29210.67	0.12308	1772014.0	1289633.0	636868.0	0.317759	0.705551
     29211.16	0.13235	1895375.0	1379812.0	680788.0	0.317469	0.706452
     29211.65	0.12690	1832473.0	1334063.0	658205.0	0.317437	0.706468
     29212.14	0.11580	1652824.0	1203972.0	594583.0	0.316859	0.705521
     29212.63	0.12997	1881460.0	1371036.0	677514.0	0.316481	0.704892
     29213.12	0.13330	1920453.0	1400139.0	692869.0	0.315990	0.703486
     29213.61	0.13128	1876681.0	1368897.0	678667.0	0.315499	0.701630
     29214.10	0.12529	1830815.0	1335984.0	663938.0	0.315093	0.699235
     29214.59	0.13221	1864256.0	1360900.0	678392.0	0.314716	0.696176
     29215.08	0.13230	1889697.0	1380123.0	690127.0	0.314244	0.693052
     29215.57	0.12512	1751553.0	1279852.0	642787.0	0.313758	0.688686
     29216.06	0.13889	1978485.0	1446533.0	729445.0	0.313162	0.684641
     29216.56	0.12045	1719564.0	1257903.0	637185.0	0.312625	0.680141
     29217.05	0.12534	1802827.0	1318851.0	671591.0	0.312595	0.674867
     29217.54	0.11958	1723336.0	1261122.0	645064.0	0.312260	0.670408
     29218.03	0.12228	1728572.0	1265407.0	650301.0	0.311902	0.665714
     29218.52	0.12911	1825935.0	1337225.0	690287.0	0.311496	0.661244
     29219.01	0.12404	1731233.0	1267761.0	656780.0	0.311582	0.657659
     29219.50	0.12640	1767519.0	1294534.0	673341.0	0.311426	0.653654
     29219.99	0.14118	1986281.0	1455159.0	758093.0	0.311149	0.652064
     29220.48	0.10794	1554802.0	1138607.0	594552.0	0.311543	0.649753
     29220.97	0.099700	1415623.0	1036601.0	541802.0	0.311623	0.648802
     29221.47	0.11252	1588664.0	1163219.0	607751.0	0.311702	0.649181
     29221.96	0.11653	1669706.0	1222861.0	638367.0	0.311454	0.650035
     29222.45	0.11603	1654796.0	1211989.0	631937.0	0.311415	0.651228
     29222.94	0.12321	1776416.0	1300745.0	676607.0	0.311661	0.653602
     29223.43	0.11903	1729204.0	1265886.0	656731.0	0.311889	0.656253
     29223.92	0.12846	1820859.0	1332874.0	689371.0	0.311971	0.659313
     29224.41	0.10437	1501988.0	1099423.0	566464.0	0.312004	0.663127
     29224.90	0.11744	1685855.0	1233848.0	633378.0	0.312135	0.666826
     29225.39	0.12431	1738715.0	1272001.0	650021.0	0.312555	0.671342
     29225.89	0.13736	1962312.0	1436257.0	730987.0	0.312083	0.675400
     29226.38	0.12600	1815281.0	1327975.0	673443.0	0.312585	0.679007
     29226.87	0.14574	2033925.0	1488119.0	751318.0	0.312455	0.683439
     29227.36	0.13241	1871171.0	1368623.0	688498.0	0.312759	0.687048
     29227.85	0.16974	2418690.0	1768959.0	886802.0	0.312835	0.690525
     29228.34	0.086344	1217929.0	890276.0	444369.0	0.313376	0.694876
     29228.83	0.12874	1839622.0	1344989.0	668502.0	0.313174	0.699102
     29229.32	0.10930	1563335.0	1142338.0	565686.0	0.313744	0.702793
     29229.81	0.13084	1875225.0	1369970.0	675366.0	0.313940	0.707289
     29230.31	0.13536	1909678.0	1395023.0	685099.0	0.314024	0.711103
     29230.80	0.13750	1948840.0	1423261.0	696512.0	0.314284	0.714621
     29231.29	0.14329	2046614.0	1493812.0	727669.0	0.314855	0.719240
     29231.78	0.14831	2139106.0	1560854.0	758079.0	0.315155	0.722201
     29232.27	0.10428	1480407.0	1079424.0	522004.0	0.315889	0.726508
     29232.76	0.12303	1756139.0	1280061.0	616851.0	0.316210	0.730036
     29233.25	0.13661	1937933.0	1411929.0	677722.0	0.316665	0.733975
     29233.75	0.13097	1901132.0	1384772.0	662100.0	0.316914	0.737874
     29234.24	0.13285	1888410.0	1374755.0	655337.0	0.317460	0.740881
     29234.73	0.13946	2038230.0	1482913.0	704959.0	0.318073	0.743624
     29235.22	0.19759	2798751.0	2035085.0	965019.0	0.318636	0.746145
     29235.71	0.095078	1369297.0	995034.0	471117.0	0.319276	0.747670
     29236.20	0.087326	1243694.0	903694.0	426856.0	0.319350	0.750044
     29236.69	0.11625	1682109.0	1221501.0	576412.0	0.319968	0.751013
     29237.19	0.12003	1727526.0	1254248.0	591590.0	0.320154	0.751478
     29237.68	0.12795	1859951.0	1349744.0	636493.0	0.320635	0.751697
     29238.17	0.12861	1865867.0	1353174.0	638349.0	0.321273	0.751323
     29238.66	0.12268	1750754.0	1269416.0	599435.0	0.321490	0.750325
     29239.15	0.14929	2116869.0	1534450.0	725815.0	0.321766	0.748632
     29239.64	0.10068	1434256.0	1039247.0	492300.0	0.322150	0.747163
     29240.14	0.12494	1799239.0	1303287.0	618960.0	0.322474	0.744604
     29240.63	0.12115	1734491.0	1256336.0	598064.0	0.322514	0.742257
     29241.12	0.11244	1620693.0	1174158.0	560709.0	0.322303	0.739105
     29241.61	0.12697	1813524.0	1313425.0	629317.0	0.322634	0.735758
     29242.10	0.12126	1761567.0	1275493.0	613308.0	0.322871	0.732221
     29242.59	0.11120	1605567.0	1162355.0	561258.0	0.323029	0.728023
     29243.09	0.13529	1960246.0	1419002.0	687673.0	0.323116	0.724396
     29243.58	0.11798	1673889.0	1211236.0	589513.0	0.323508	0.720100
     29244.07	0.12390	1776186.0	1285579.0	628263.0	0.323259	0.716006
     29244.56	0.12391	1783403.0	1290279.0	633118.0	0.323665	0.711957
     29245.05	0.12370	1761353.0	1274368.0	628078.0	0.323632	0.707541
     29245.55	0.13910	1946490.0	1408472.0	697102.0	0.323522	0.703329
     29246.04	0.12081	1755803.0	1269967.0	630948.0	0.323935	0.699523
     29246.53	0.13496	1935104.0	1399577.0	697925.0	0.323991	0.695814
     29247.02	0.12701	1850315.0	1338357.0	669805.0	0.323913	0.692211
     29247.51	0.11653	1672537.0	1209509.0	607995.0	0.324127	0.687803
     29248.00	0.12937	1849941.0	1337707.0	674406.0	0.324197	0.684880
     29248.50	0.11701	1669395.0	1207016.0	610398.0	0.324310	0.681795
     29248.99	0.12876	1836239.0	1327697.0	673788.0	0.324274	0.678286
     29249.48	0.11594	1659607.0	1199947.0	610578.0	0.324303	0.675627
     29249.97	0.13320	1897795.0	1371708.0	700029.0	0.324636	0.672690
     29250.46	0.13015	1865599.0	1348092.0	689425.0	0.324892	0.670588
     29250.96	0.12309	1740912.0	1258468.0	644789.0	0.324514	0.668727
     29251.45	0.13652	1946308.0	1406529.0	721629.0	0.324809	0.667369
     29251.94	0.12735	1818755.0	1314518.0	675887.0	0.324682	0.665199
     29252.43	0.12352	1789746.0	1293494.0	665531.0	0.324727	0.664517
     29252.92	0.14167	2031457.0	1467891.0	756174.0	0.324927	0.663310
     29253.42	0.11947	1709028.0	1235059.0	636529.0	0.324806	0.662844
     29253.91	0.12722	1821139.0	1316206.0	678380.0	0.324709	0.662801
     29254.40	0.15430	2222649.0	1606257.0	827590.0	0.324793	0.663144
     29254.89	0.10658	1547161.0	1118362.0	575908.0	0.324557	0.663672
     29255.39	0.12412	1799546.0	1300700.0	669518.0	0.324632	0.664100
     29255.88	0.12739	1815452.0	1312288.0	675205.0	0.324562	0.664511
     29256.37	0.12176	1743780.0	1260487.0	647759.0	0.324557	0.665735
     29256.86	0.12728	1810915.0	1308968.0	672155.0	0.324593	0.666505
     29257.35	0.11822	1684975.0	1218474.0	624808.0	0.324151	0.667910
     29257.85	0.13069	1843014.0	1332866.0	682175.0	0.324071	0.669801
     29258.34	0.18789	2705547.0	1956852.0	1000094.0	0.323967	0.671243
     29258.83	0.10778	1519442.0	1099440.0	560613.0	0.323542	0.673525
     29259.32	0.090941	1293497.0	936023.0	476348.0	0.323465	0.675491
     29259.82	0.11579	1621094.0	1173117.0	595401.0	0.323437	0.678184
     29260.31	0.086653	1239198.0	897071.0	453857.0	0.323085	0.681353
     29260.80	0.11107	1591785.0	1152700.0	581928.0	0.322749	0.683516
     29261.29	0.14581	2056036.0	1489301.0	749762.0	0.322473	0.686306
     29261.79	0.15300	2177701.0	1577830.0	791775.0	0.322219	0.689529
     29262.28	0.13836	1972705.0	1429291.0	715047.0	0.322227	0.692586
     29262.77	0.086808	1236152.0	896492.0	447070.0	0.321269	0.695774
     29263.26	0.078689	1121349.0	813236.0	403893.0	0.321266	0.699871
     29263.75	0.12019	1702580.0	1235153.0	611914.0	0.320950	0.702358
     29264.25	0.12869	1821810.0	1321985.0	652617.0	0.320696	0.705899
     29264.74	0.11040	1562666.0	1134220.0	558028.0	0.320448	0.709291
     29265.23	0.15804	2272412.0	1650110.0	809013.0	0.320000	0.712782
     29265.72	0.14153	2027964.0	1473197.0	720067.0	0.319597	0.715846
     29266.22	0.12521	1783103.0	1296062.0	631579.0	0.319025	0.718863
     29266.71	0.12897	1841516.0	1338816.0	650140.0	0.318804	0.722353
     29267.20	0.11655	1626655.0	1182578.0	572749.0	0.318829	0.725005
     29267.70	0.12085	1741165.0	1266226.0	611340.0	0.318514	0.728143
     29268.19	0.13103	1902036.0	1383797.0	666769.0	0.318094	0.730143
     29268.68	0.11676	1701564.0	1238180.0	595454.0	0.317905	0.732074
     29269.17	0.14045	2046888.0	1490042.0	714988.0	0.317516	0.734294
     29269.67	0.13766	1974992.0	1437853.0	688878.0	0.317413	0.735842
     29270.16	0.13957	2030895.0	1478817.0	707755.0	0.317234	0.736900
     29270.65	0.12703	1862678.0	1356971.0	648291.0	0.316760	0.738671
     29271.14	0.12362	1778487.0	1295766.0	618732.0	0.316661	0.739185
     29271.64	0.13122	1913620.0	1394645.0	665662.0	0.316357	0.739613
     29272.13	0.13906	2016818.0	1469827.0	701771.0	0.316376	0.739293
     29272.62	0.13444	1935765.0	1411161.0	673497.0	0.316090	0.739685
     29273.11	0.12746	1870794.0	1364210.0	651485.0	0.315787	0.739076
     29273.61	0.13036	1878661.0	1369934.0	654710.0	0.315797	0.738325
     29274.10	0.13216	1917039.0	1398405.0	668431.0	0.315450	0.738154
     29274.59	0.11831	1740151.0	1269539.0	607653.0	0.315318	0.736805
     29275.09	0.12170	1753639.0	1279483.0	613379.0	0.315237	0.735228
     29275.58	0.13328	1952823.0	1424950.0	683879.0	0.315139	0.734111
     29276.07	0.12710	1855239.0	1353864.0	651004.0	0.315051	0.732202
     29276.56	0.11993	1736070.0	1266868.0	610299.0	0.315076	0.730354
     29277.06	0.13421	1968993.0	1437115.0	693651.0	0.314885	0.728424
     29277.55	0.11636	1706177.0	1245485.0	602311.0	0.314730	0.726506
     29278.04	0.13013	1914877.0	1398099.0	677542.0	0.314540	0.724397
     29278.54	0.12017	1750958.0	1278686.0	620981.0	0.314330	0.722288
     29279.03	0.12559	1835807.0	1340119.0	652163.0	0.314726	0.720219
     29279.52	0.11817	1707371.0	1246936.0	608009.0	0.314265	0.718255
     29280.02	0.11205	1642687.0	1199680.0	586189.0	0.314278	0.716168
     29280.51	0.13169	1902401.0	1389240.0	679923.0	0.314360	0.714533
     29281.00	0.12455	1807434.0	1320255.0	647638.0	0.314083	0.712248
     29281.49	0.11609	1677974.0	1225851.0	602169.0	0.313952	0.710852
     29281.99	0.11657	1695651.0	1238412.0	609664.0	0.314237	0.708677
     29282.48	0.12424	1783828.0	1303482.0	642414.0	0.313722	0.707561
     29282.97	0.13246	1914955.0	1399276.0	691081.0	0.313739	0.705453
     29283.47	0.12901	1856750.0	1356348.0	670940.0	0.314032	0.703871
     29283.96	0.12894	1857007.0	1356520.0	671833.0	0.314043	0.702668
     29284.45	0.13577	1953275.0	1427645.0	707874.0	0.313481	0.701515
     29284.95	0.12039	1706620.0	1247475.0	619317.0	0.313393	0.700260
     29285.44	0.12683	1845930.0	1348926.0	670544.0	0.313674	0.698975
     29285.93	0.13068	1875735.0	1370814.0	682098.0	0.313596	0.697987
     29286.43	0.11592	1693866.0	1238066.0	616715.0	0.313463	0.696899
     29286.92	0.13142	1893534.0	1384163.0	689986.0	0.313349	0.696180
     29287.41	0.11038	1596516.0	1167206.0	582315.0	0.313211	0.695357
     29287.91	0.13676	1973362.0	1442881.0	720375.0	0.313097	0.694625
     29288.40	0.13511	1958479.0	1431911.0	715247.0	0.313158	0.694137
     29288.89	0.14516	2101286.0	1535975.0	768077.0	0.313384	0.693031
     29289.39	0.10399	1491311.0	1090463.0	545489.0	0.313053	0.692675
     29289.88	0.11923	1708471.0	1249156.0	624896.0	0.313131	0.692638
     29290.37	0.13549	1947563.0	1424080.0	713201.0	0.313053	0.691518
     29290.87	0.12221	1713533.0	1252986.0	627157.0	0.313028	0.692088
     29291.36	0.13210	1905239.0	1393198.0	697671.0	0.313006	0.691609
     29291.85	0.13135	1889695.0	1381203.0	691936.0	0.313461	0.691217
     29292.35	0.14050	2044147.0	1494337.0	748418.0	0.313298	0.691476
     29292.84	0.11729	1704034.0	1245847.0	623952.0	0.313183	0.691497
     29293.33	0.12261	1815253.0	1327146.0	664561.0	0.313194	0.691659
     29293.83	0.12403	1775157.0	1297424.0	649719.0	0.313508	0.691596
     29294.32	0.11972	1725095.0	1261306.0	631609.0	0.313134	0.691632
     29294.81	0.13130	1863787.0	1362062.0	681781.0	0.313611	0.692047
     29295.31	0.12383	1790458.0	1308516.0	654771.0	0.313578	0.692363
     29295.80	0.12700	1836637.0	1342292.0	671405.0	0.313558	0.692761
     29296.29	0.13346	1925481.0	1407227.0	703576.0	0.313555	0.693200
     29296.79	0.10811	1564805.0	1143374.0	571592.0	0.313778	0.693313
     29297.28	0.11080	1622690.0	1185619.0	592319.0	0.313820	0.693975
     29297.77	0.11628	1699674.0	1241876.0	619808.0	0.313813	0.694969
     29298.27	0.11408	1656805.0	1210336.0	604100.0	0.313993	0.694914
     29298.76	0.11929	1705314.0	1245610.0	621123.0	0.314124	0.695852
     29299.26	0.14295	2076165.0	1516434.0	755574.0	0.314161	0.696639
     29299.75	0.12622	1852011.0	1352376.0	673273.0	0.314409	0.697467
     29300.24	0.15005	2176712.0	1589245.0	790992.0	0.314556	0.697726
     29300.74	0.099965	1463052.0	1068293.0	530885.0	0.314463	0.699272
     29301.23	0.075627	1092749.0	797531.0	396186.0	0.314931	0.699637
     29301.72	0.11887	1734777.0	1266202.0	628163.0	0.314857	0.700977
     29302.22	0.12863	1862458.0	1358856.0	673973.0	0.315254	0.701208
     29302.71	0.13175	1903987.0	1389516.0	688477.0	0.314995	0.702229
     29303.21	0.18142	2610725.0	1904888.0	943269.0	0.315205	0.702827
     29303.70	0.14888	2186724.0	1595534.0	789006.0	0.315196	0.704190
     29304.19	0.079587	1145510.0	835701.0	413012.0	0.315334	0.704794
     29304.69	0.097709	1397934.0	1019426.0	503406.0	0.315756	0.705598
     29305.18	0.13919	1990607.0	1452546.0	716754.0	0.315122	0.706340
     29305.67	0.11873	1677320.0	1223027.0	602978.0	0.315868	0.707204
     29306.17	0.13290	1896622.0	1383351.0	681442.0	0.315566	0.708053
     29306.66	0.14945	2152844.0	1570251.0	772990.0	0.315554	0.708725
     29307.16	0.12135	1735431.0	1265609.0	622461.0	0.315702	0.709628
     29307.65	0.19127	2724253.0	1986205.0	976202.0	0.315968	0.710312
     29308.14	0.080551	1157892.0	844461.0	414631.0	0.315658	0.711310
     29308.64	0.10438	1490207.0	1086414.0	533235.0	0.316033	0.711675
     29309.13	0.14002	1952137.0	1423024.0	698093.0	0.316140	0.712187
     29309.63	0.13673	1966834.0	1434061.0	703371.0	0.315915	0.712381
     29310.12	0.13578	1933793.0	1410214.0	690965.0	0.315742	0.713408
     29310.61	0.14021	1998820.0	1457087.0	713846.0	0.316118	0.713527
     29311.11	0.12377	1750110.0	1275725.0	624553.0	0.316164	0.714234
     29311.60	0.14541	2081552.0	1516964.0	742541.0	0.316403	0.714388
     29312.10	0.11569	1635400.0	1191840.0	583244.0	0.316389	0.714648
     29312.59	0.12192	1741581.0	1269524.0	620697.0	0.316151	0.715554
     29313.08	0.12845	1812150.0	1320783.0	645817.0	0.316289	0.715464
     29313.58	0.11803	1670328.0	1217461.0	595269.0	0.316252	0.715509
     29314.07	0.13615	1936320.0	1411351.0	689562.0	0.316242	0.716246
     29314.57	0.11977	1729219.0	1260376.0	615578.0	0.316260	0.716604
     29315.06	0.13398	1856732.0	1353570.0	661529.0	0.316072	0.715947
     29315.56	0.11645	1648608.0	1201730.0	586876.0	0.316169	0.716704
     29316.05	0.13223	1852198.0	1350047.0	659562.0	0.316234	0.716319
     29316.54	0.12366	1732015.0	1262508.0	616535.0	0.316185	0.716740
     29317.04	0.11941	1692499.0	1233602.0	602586.0	0.316268	0.716463
     29317.53	0.12149	1738293.0	1266884.0	618746.0	0.316343	0.716621
     29318.03	0.12252	1714546.0	1249777.0	610341.0	0.316183	0.716703
     29318.52	0.11730	1706686.0	1243617.0	607277.0	0.316529	0.716794
     29319.02	0.12820	1793053.0	1306867.0	638452.0	0.316287	0.716341
     29319.51	0.12512	1775297.0	1293614.0	631876.0	0.316528	0.716502
     29320.00	0.11168	1579978.0	1151659.0	562759.0	0.316207	0.716107
     29320.50	0.12063	1719275.0	1252626.0	612521.0	0.316661	0.715414
     29320.99	0.13566	1900549.0	1385389.0	677414.0	0.316162	0.715454
     29321.49	0.11829	1655455.0	1206532.0	590120.0	0.316326	0.715180
     29321.98	0.11570	1654127.0	1205563.0	589494.0	0.316327	0.715437
     29322.48	0.14333	1980264.0	1443718.0	705943.0	0.316008	0.715443
     29322.97	0.13947	1962233.0	1430347.0	700074.0	0.316166	0.714486
     29323.47	0.12397	1757993.0	1281010.0	627421.0	0.316524	0.713786
     29323.96	0.11950	1652326.0	1203986.0	589792.0	0.316546	0.713623
     29324.45	0.13460	1937929.0	1412352.0	691979.0	0.316363	0.713456
     29324.95	0.11587	1662484.0	1211599.0	594077.0	0.316372	0.712687
     29325.44	0.11666	1657702.0	1208240.0	592549.0	0.316268	0.712486
     29325.94	0.13022	1790326.0	1304984.0	640597.0	0.316207	0.711546
     29326.43	0.13567	1903480.0	1387868.0	681165.0	0.315915	0.711719
     29326.93	0.13454	1901720.0	1385930.0	680684.0	0.316387	0.711028
     29327.42	0.10963	1521150.0	1108816.0	544940.0	0.316174	0.710372
     29327.92	0.11944	1667525.0	1215767.0	597975.0	0.315965	0.709581
     29328.41	0.13455	1929640.0	1406882.0	692067.0	0.315958	0.709448
     29328.91	0.12505	1783094.0	1299608.0	639869.0	0.316287	0.708554
     29329.40	0.13023	1862299.0	1358036.0	668673.0	0.315772	0.708500
     29329.89	0.12587	1777138.0	1295759.0	638823.0	0.315908	0.707224
     29330.39	0.14702	2098613.0	1530590.0	754557.0	0.315623	0.707278
     29330.88	0.13432	1904901.0	1389098.0	685217.0	0.315775	0.706674
     29331.38	0.12324	1737467.0	1266834.0	625285.0	0.315907	0.706069
     29331.87	0.11521	1616027.0	1178885.0	581847.0	0.315402	0.706117
     29332.37	0.11904	1690669.0	1233044.0	609113.0	0.315638	0.705237
     29332.86	0.12164	1718664.0	1253590.0	619822.0	0.315536	0.704334
     29333.36	0.13286	1894001.0	1381749.0	682939.0	0.315341	0.704700
     29333.85	0.12305	1749228.0	1275874.0	631188.0	0.315543	0.703783
     29334.35	0.12266	1735377.0	1266121.0	626724.0	0.315267	0.703207
     29334.84	0.13577	1925020.0	1404205.0	695410.0	0.315465	0.702725
     29335.34	0.10268	1424134.0	1039210.0	514719.0	0.315103	0.702595
     29335.83	0.12242	1714350.0	1250973.0	619681.0	0.315112	0.702472
     29336.33	0.12112	1690924.0	1233609.0	611470.0	0.315331	0.701833
     29336.82	0.11194	1571852.0	1146940.0	568796.0	0.315157	0.701331
     29337.32	0.11795	1639366.0	1196268.0	593199.0	0.315103	0.701432
     29337.81	0.11104	1576647.0	1150563.0	570627.0	0.315049	0.701271
     29338.31	0.11954	1681423.0	1227148.0	609238.0	0.314948	0.700239
     29338.80	0.12994	1798303.0	1312620.0	651785.0	0.314818	0.700066
     29339.30	0.12983	1831391.0	1336662.0	663796.0	0.314900	0.699956
     29339.79	0.10426	1483843.0	1083178.0	537953.0	0.314736	0.699883
     29340.29	0.10650	1516718.0	1107184.0	550124.0	0.314729	0.699431
     29340.78	0.13325	1879008.0	1372118.0	681720.0	0.314388	0.699492
     29341.28	0.12195	1725226.0	1259515.0	625938.0	0.314631	0.699231
     29341.77	0.12222	1716073.0	1253033.0	622973.0	0.314472	0.698819
     29342.27	0.15907	2249278.0	1642294.0	816561.0	0.314515	0.698748
     29342.76	0.15456	2178086.0	1590650.0	791073.0	0.314304	0.698508
     29343.26	0.12596	1786411.0	1304527.0	649083.0	0.314368	0.698035
     29343.75	0.087436	1236904.0	903286.0	449196.0	0.314328	0.698580
     29344.25	0.13586	1910377.0	1395389.0	694234.0	0.314127	0.698119
     29344.74	0.12185	1697447.0	1239741.0	616726.0	0.314223	0.698233
     29345.24	0.14253	2025478.0	1479605.0	735913.0	0.314031	0.698419
     29345.73	0.11613	1641861.0	1199511.0	596764.0	0.313916	0.698148
     29346.23	0.14010	1990705.0	1454355.0	723892.0	0.313926	0.697676
     29346.72	0.15233	2145841.0	1568120.0	780264.0	0.313654	0.698000
     29347.22	0.11469	1618606.0	1182624.0	588636.0	0.313830	0.697683
     29347.72	0.12487	1768852.0	1292581.0	643210.0	0.313690	0.697925
     29348.21	0.13162	1838804.0	1343814.0	669033.0	0.313604	0.697434
     29348.71	0.13781	1956465.0	1430012.0	711677.0	0.313456	0.697814
     29349.20	0.13038	1873090.0	1369022.0	681189.0	0.313493	0.698012
     29349.70	0.13427	1922986.0	1405584.0	699124.0	0.313426	0.698380
     29350.19	0.13910	1964749.0	1436398.0	714563.0	0.313226	0.698223
     29350.69	0.12941	1818296.0	1329170.0	661456.0	0.313345	0.697867
     29351.18	0.12219	1717064.0	1255487.0	624390.0	0.313092	0.698504
     29351.68	0.13023	1840806.0	1346016.0	669400.0	0.313054	0.698523
     29352.17	0.12690	1788163.0	1307872.0	650463.0	0.312787	0.698472
     29352.67	0.12037	1726065.0	1262391.0	627856.0	0.312837	0.698452
     29353.16	0.12919	1803877.0	1319049.0	655649.0	0.313027	0.699041
     29353.66	0.12072	1729081.0	1264862.0	628613.0	0.312627	0.699202
     29354.16	0.13117	1844902.0	1349261.0	670194.0	0.312869	0.699745
     29354.65	0.12569	1802619.0	1318914.0	654989.0	0.312432	0.699946
     29355.15	0.12617	1820765.0	1332376.0	661560.0	0.312293	0.700118
     29355.64	0.12506	1785273.0	1306479.0	648554.0	0.312236	0.700346
     29356.14	0.12235	1758631.0	1287109.0	638776.0	0.312137	0.700600
     29356.63	0.11478	1625446.0	1189543.0	590424.0	0.312213	0.700484
     29357.13	0.13283	1896383.0	1388217.0	688722.0	0.311928	0.700938
     29357.63	0.11739	1686896.0	1234696.0	612773.0	0.312065	0.700586
     29358.12	0.12878	1773988.0	1298814.0	644179.0	0.311779	0.701230
     29358.62	0.11774	1659101.0	1214692.0	602189.0	0.311785	0.701674
     29359.11	0.12445	1758105.0	1287395.0	638018.0	0.311616	0.702010
     29359.61	0.11007	1566385.0	1146899.0	568390.0	0.311709	0.702009
     29360.10	0.12531	1798528.0	1317126.0	652439.0	0.311516	0.702490
     29360.60	0.12615	1779901.0	1303638.0	645570.0	0.311399	0.702780
     29361.09	0.12459	1776285.0	1301208.0	644036.0	0.311231	0.703294
     29361.59	0.12500	1787261.0	1309157.0	648416.0	0.311301	0.702606
     29362.09	0.13440	1898259.0	1390671.0	688643.0	0.311151	0.702819
     29362.58	0.13073	1874035.0	1373037.0	679559.0	0.311069	0.703336
     29363.08	0.11746	1669767.0	1223623.0	605492.0	0.310868	0.703530
     29363.57	0.13247	1891233.0	1385768.0	685566.0	0.310974	0.703765
     29364.07	0.12740	1824111.0	1336916.0	661483.0	0.310727	0.703636
     29364.57	0.12763	1807965.0	1325332.0	655414.0	0.310539	0.704151
     29365.06	0.12762	1811546.0	1327864.0	656572.0	0.310609	0.704295
     29365.56	0.11907	1665660.0	1220830.0	604021.0	0.310690	0.703677
     29366.05	0.12987	1849415.0	1355902.0	670279.0	0.310402	0.704528
     29366.55	0.11646	1668679.0	1223394.0	605006.0	0.310403	0.704146
     29367.05	0.12448	1786058.0	1309500.0	647640.0	0.310366	0.704066
     29367.54	0.13276	1895856.0	1390215.0	687221.0	0.310212	0.704558
     29368.04	0.12586	1770433.0	1298423.0	642187.0	0.310074	0.704026
     29368.53	0.12746	1797734.0	1318600.0	652037.0	0.309956	0.704225
     29369.03	0.13332	1878516.0	1377680.0	681377.0	0.310081	0.704040
     29369.53	0.12717	1784602.0	1308925.0	647086.0	0.309989	0.704482
     29370.02	0.13139	1853718.0	1359941.0	672527.0	0.309752	0.704154
     29370.52	0.12821	1819469.0	1334411.0	660229.0	0.310055	0.703659
     29371.01	0.12992	1815284.0	1331765.0	658907.0	0.309737	0.703678
     29371.51	0.12372	1762911.0	1293363.0	640180.0	0.309721	0.703252
     29372.01	0.13517	1895033.0	1389946.0	687908.0	0.309971	0.703365
     29372.50	0.12029	1732259.0	1270877.0	629186.0	0.309719	0.703036
     29373.00	0.12456	1749994.0	1283635.0	635750.0	0.309916	0.702646
     29373.49	0.12877	1829224.0	1342425.0	664731.0	0.309414	0.702851
     29373.99	0.13325	1904295.0	1397232.0	692254.0	0.309619	0.702295
     29374.49	0.12000	1717951.0	1260564.0	624439.0	0.309573	0.702461
     29374.98	0.11566	1640702.0	1204057.0	596550.0	0.309428	0.702289
     29375.48	0.12678	1769880.0	1298562.0	643615.0	0.309654	0.701912
     29375.98	0.12166	1702995.0	1249463.0	619831.0	0.309675	0.701022
     29376.47	0.12656	1780908.0	1306933.0	648766.0	0.309440	0.700366
     29376.97	0.11284	1585600.0	1163880.0	577741.0	0.309204	0.700389
     29377.46	0.11795	1676925.0	1230459.0	610849.0	0.309574	0.700293
     29377.96	0.11459	1653712.0	1213582.0	602652.0	0.309446	0.699992
     29378.46	0.11828	1680931.0	1233882.0	612884.0	0.309183	0.699745
     29378.95	0.12246	1741199.0	1277661.0	635079.0	0.309543	0.699037
     29379.45	0.12922	1832409.0	1344447.0	668702.0	0.309649	0.698400
     29379.95	0.10263	1432352.0	1051096.0	522838.0	0.309484	0.698317
     29380.44	0.10342	1430968.0	1049879.0	522424.0	0.309676	0.697951
     29380.94	0.12452	1716478.0	1259717.0	627398.0	0.309387	0.697061
     29381.44	0.12614	1749373.0	1283535.0	639439.0	0.309639	0.696782
     29381.93	0.13181	1858998.0	1364232.0	679776.0	0.309446	0.696584
     29382.43	0.12722	1764734.0	1295023.0	645732.0	0.309472	0.695899
     29382.93	0.14650	1989932.0	1460340.0	728432.0	0.309431	0.695530
     29383.42	0.13159	1838600.0	1349416.0	673431.0	0.309333	0.695042
     29383.92	0.12176	1679860.0	1232598.0	615520.0	0.309586	0.694412
     29384.41	0.11597	1608277.0	1180237.0	589953.0	0.309448	0.693428
     29384.91	0.12414	1720293.0	1262775.0	631111.0	0.309183	0.693585
     29385.41	0.14016	1897166.0	1392087.0	696649.0	0.309557	0.692278
     29385.90	0.12672	1744870.0	1280592.0	640842.0	0.309358	0.692295
     29386.40	0.13888	1878480.0	1378867.0	690317.0	0.309201	0.691867
     29386.90	0.12131	1703791.0	1250711.0	626235.0	0.309144	0.691742
     29387.39	0.14407	2003371.0	1470232.0	736815.0	0.309411	0.690839
     29387.89	0.11605	1583593.0	1162507.0	583076.0	0.309117	0.690017
     29388.39	0.13720	1896243.0	1391809.0	697958.0	0.309270	0.690201
     29388.88	0.11802	1605594.0	1178855.0	591359.0	0.308950	0.689876
     29389.38	0.13686	1874085.0	1375796.0	690923.0	0.309088	0.688759
     29389.88	0.13610	1855992.0	1362179.0	684407.0	0.309334	0.688288
     29390.37	0.13555	1863664.0	1367644.0	687646.0	0.309455	0.687571
     29390.87	0.13732	1864558.0	1368759.0	688058.0	0.309120	0.687787
     29391.37	0.13274	1844032.0	1353635.0	681141.0	0.309161	0.686780
     29391.87	0.12928	1784995.0	1310161.0	659282.0	0.309266	0.686754
     29392.36	0.11712	1591795.0	1168734.0	588528.0	0.308941	0.686052
     29392.86	0.12993	1751723.0	1285836.0	647569.0	0.309191	0.685939
     29393.36	0.12745	1736011.0	1274716.0	642096.0	0.308867	0.685741
     29393.85	0.13007	1759232.0	1291468.0	650910.0	0.309098	0.685163
     29394.35	0.13170	1767871.0	1297892.0	654599.0	0.309035	0.684474
     29394.85	0.12373	1702006.0	1249451.0	630421.0	0.309103	0.684072
     29395.34	0.13134	1776230.0	1304072.0	657876.0	0.309001	0.684230
     29395.84	0.11500	1548320.0	1137151.0	574094.0	0.308644	0.683488
     29396.34	0.12230	1655233.0	1215323.0	614004.0	0.308932	0.682764
     29396.83	0.12963	1752572.0	1286845.0	649958.0	0.308891	0.683041
     29397.33	0.11883	1634846.0	1200458.0	606567.0	0.308845	0.682643
     29397.83	0.13298	1859608.0	1365573.0	690088.0	0.308792	0.682510
     29398.33	0.12140	1671115.0	1226964.0	620191.0	0.308948	0.682271
     29398.82	0.12217	1683872.0	1236723.0	625251.0	0.308631	0.682067
     29399.32	0.11852	1635968.0	1201353.0	607830.0	0.308786	0.681308
     29399.82	0.12086	1651791.0	1212843.0	613395.0	0.308893	0.681713
     29400.31	0.11243	1510736.0	1109520.0	561215.0	0.308669	0.681579
     29400.81	0.12245	1665913.0	1223796.0	619403.0	0.308416	0.680957
     29401.31	0.12609	1724881.0	1266694.0	641337.0	0.308748	0.680611
     29401.80	0.11665	1604672.0	1178912.0	596747.0	0.308327	0.680854
     29402.30	0.12641	1744702.0	1281695.0	648871.0	0.308400	0.680705
     29402.80	0.13488	1847130.0	1356632.0	687032.0	0.308628	0.680380
     29403.30	0.12369	1672856.0	1229186.0	622411.0	0.308180	0.680507
     29403.79	0.12767	1745580.0	1282333.0	649392.0	0.308406	0.680400
     29404.29	0.12708	1718855.0	1262640.0	639799.0	0.308454	0.679806
     29404.79	0.12731	1741452.0	1279549.0	648092.0	0.308212	0.680230
     29405.29	0.12626	1686643.0	1239036.0	627920.0	0.308407	0.679676
     29405.78	0.13593	1847046.0	1357044.0	687559.0	0.308279	0.679916
     29406.28	0.11868	1551011.0	1139876.0	577622.0	0.307987	0.679755
     29406.78	0.12658	1681901.0	1236007.0	626009.0	0.308039	0.680277
     29407.27	0.12020	1603433.0	1178335.0	597160.0	0.308045	0.679673
     29407.77	0.12663	1704864.0	1252863.0	634580.0	0.308054	0.680223
     29408.27	0.11852	1613803.0	1186491.0	600921.0	0.307593	0.680292
     29408.77	0.13285	1825975.0	1342150.0	679971.0	0.307841	0.679978
     29409.26	0.13006	1772252.0	1302472.0	659851.0	0.307987	0.680005
     29409.76	0.12381	1663699.0	1222876.0	619317.0	0.307838	0.680343
     29410.26	0.12988	1743239.0	1281673.0	649075.0	0.307579	0.680373
     29410.76	0.13732	1854291.0	1362987.0	690394.0	0.307824	0.680171
     29411.25	0.11960	1581702.0	1162701.0	588985.0	0.307756	0.680100
     29411.75	0.13837	1838704.0	1352127.0	684435.0	0.307382	0.680841
     29412.25	0.12832	1704107.0	1252824.0	634600.0	0.307641	0.680161
     29412.75	0.12326	1660810.0	1221254.0	618270.0	0.307427	0.680708
     29413.24	0.12638	1712264.0	1258854.0	637738.0	0.307615	0.680030
     29413.74	0.12625	1709097.0	1256696.0	635964.0	0.307479	0.681099
     29414.24	0.12798	1731854.0	1273738.0	644716.0	0.307237	0.680901
     29414.74	0.12394	1673204.0	1230371.0	622723.0	0.307425	0.680969
     29415.23	0.12142	1617652.0	1189925.0	601950.0	0.307085	0.681471
     29415.73	0.15329	2070645.0	1522825.0	771041.0	0.307293	0.680581
     29416.23	0.10839	1425791.0	1048608.0	530414.0	0.307263	0.681561
     29416.73	0.10876	1484586.0	1092042.0	552575.0	0.307087	0.681215
     29417.22	0.12092	1634445.0	1202587.0	608414.0	0.306828	0.681375
     29417.72	0.11573	1543673.0	1135440.0	574408.0	0.307144	0.681436
     29418.22	0.12783	1723342.0	1267734.0	640945.0	0.307034	0.682043
     29418.72	0.11009	1494959.0	1099812.0	556054.0	0.306960	0.682029
     29419.22	0.12233	1641600.0	1207613.0	610562.0	0.307026	0.682021
     29419.71	0.12407	1692535.0	1245071.0	629513.0	0.307035	0.682001
     29420.21	0.10321	1379922.0	1015226.0	513311.0	0.306916	0.681985
     29420.71	0.11385	1502509.0	1105670.0	558724.0	0.306685	0.682551
     29421.21	0.12171	1630851.0	1200119.0	606474.0	0.306681	0.682514
     29421.70	0.11528	1536242.0	1130527.0	571497.0	0.306655	0.682180
     29422.20	0.12050	1590049.0	1170178.0	591358.0	0.306609	0.682490
     29422.70	0.13478	1808503.0	1330940.0	672530.0	0.306614	0.682594
     29423.20	0.13085	1746464.0	1285338.0	649288.0	0.306571	0.682901
     29423.70	0.15538	2095713.0	1542456.0	779003.0	0.306518	0.683116
     29424.19	0.10770	1453327.0	1069368.0	540529.0	0.306788	0.682275
     29424.69	0.12533	1686034.0	1240561.0	626824.0	0.306815	0.682653
     29425.19	0.12060	1633811.0	1202887.0	607701.0	0.306191	0.682797
     29425.69	0.14180	1931663.0	1422088.0	718845.0	0.306255	0.682236
     29426.19	0.13516	1815226.0	1336360.0	675102.0	0.306260	0.682841
     29426.68	0.12425	1648272.0	1213436.0	612859.0	0.306271	0.683076
     29427.18	0.12306	1622571.0	1194308.0	603232.0	0.306445	0.683020
     29427.68	0.14251	1932789.0	1422925.0	718855.0	0.306249	0.682810
     29428.18	0.12376	1638648.0	1205752.0	609432.0	0.306768	0.682331
     29428.68	0.12333	1654194.0	1217844.0	615115.0	0.306232	0.683028
     29429.17	0.12549	1691556.0	1245320.0	629341.0	0.306256	0.682475
     29429.67	0.12864	1707913.0	1257177.0	635238.0	0.306403	0.682624
     29430.17	0.14065	1909359.0	1405619.0	710429.0	0.306290	0.682364
     29430.67	0.14171	1890262.0	1391968.0	703564.0	0.305997	0.682315
     29431.17	0.12144	1599541.0	1177848.0	595231.0	0.306028	0.682495
     29431.66	0.14501	1956869.0	1440258.0	728112.0	0.306523	0.682123
     29432.16	0.12521	1691290.0	1245181.0	629419.0	0.306211	0.682239
     29432.66	0.12279	1693135.0	1246669.0	630328.0	0.306107	0.681990
     29433.16	0.13356	1805078.0	1329568.0	672335.0	0.305750	0.681853
     29433.66	0.13023	1753398.0	1291203.0	653285.0	0.305981	0.681316
     29434.16	0.12855	1730089.0	1274354.0	644630.0	0.305733	0.681518
     29434.65	0.12392	1627297.0	1198573.0	606608.0	0.305789	0.681004
     29435.15	0.12794	1745874.0	1285615.0	650691.0	0.306018	0.680958
     29435.65	0.11828	1564772.0	1152743.0	583577.0	0.305596	0.680723
     29436.15	0.12725	1759757.0	1296125.0	656061.0	0.305797	0.680881
     29436.65	0.12306	1658892.0	1221812.0	618718.0	0.305815	0.680441
     29437.15	0.12395	1674390.0	1232917.0	624368.0	0.306066	0.680398
     29437.64	0.12069	1603924.0	1181602.0	598612.0	0.305582	0.680013
     29438.14	0.13111	1778820.0	1310462.0	663949.0	0.305570	0.679930
     29438.64	0.11358	1543100.0	1136407.0	576262.0	0.305922	0.679064
     29439.14	0.13538	1818901.0	1339835.0	679471.0	0.305686	0.678987
     29439.64	0.11275	1543059.0	1136695.0	576718.0	0.305642	0.678527
     29440.14	0.11372	1579257.0	1163299.0	590277.0	0.305695	0.678423
     29440.63	0.12218	1654069.0	1218331.0	618394.0	0.305756	0.678111
     29441.13	0.12208	1664739.0	1226639.0	622756.0	0.305390	0.677878
     29441.63	0.12792	1770283.0	1304205.0	662164.0	0.305546	0.677836
     29442.13	0.11866	1621659.0	1194595.0	606775.0	0.305642	0.677404
     29442.63	0.12666	1735806.0	1278985.0	649864.0	0.305405	0.677059
     29443.13	0.13145	1788963.0	1317992.0	670007.0	0.305527	0.676576
     29443.63	0.12176	1678824.0	1236721.0	628932.0	0.305630	0.676196
     29444.12	0.13602	1830961.0	1348973.0	686059.0	0.305497	0.676135
     29444.62	0.13232	1814655.0	1337123.0	680454.0	0.305375	0.675515
     29445.12	0.12663	1720932.0	1268203.0	645933.0	0.305265	0.674660
     29445.62	0.11773	1610681.0	1186806.0	604149.0	0.305391	0.675200
     29446.12	0.12099	1656577.0	1220356.0	621923.0	0.305611	0.674082
     29446.62	0.13100	1798067.0	1325042.0	674941.0	0.305268	0.674574
     29447.12	0.12496	1710814.0	1260446.0	642779.0	0.305504	0.673420
     29447.62	0.11839	1646068.0	1213088.0	618641.0	0.305220	0.673399
     29448.11	0.13276	1814707.0	1337454.0	682327.0	0.305156	0.673014
     29448.61	0.11936	1632553.0	1203007.0	613976.0	0.305321	0.672624
     29449.11	0.12778	1747574.0	1287653.0	657577.0	0.305407	0.672015
     29449.61	0.12786	1760993.0	1297749.0	662853.0	0.305247	0.671833
     29450.11	0.13521	1841783.0	1357159.0	693443.0	0.305341	0.671480
     29450.61	0.12316	1688820.0	1244531.0	636306.0	0.305271	0.670834
     29451.11	0.13554	1849968.0	1363698.0	697330.0	0.304968	0.670697
     29451.61	0.12887	1733319.0	1277429.0	653501.0	0.305189	0.670261
     29452.10	0.12601	1700530.0	1253695.0	641569.0	0.304845	0.669934
     29452.60	0.13257	1794297.0	1322432.0	677041.0	0.305141	0.669496
     29453.10	0.12595	1716086.0	1264602.0	648187.0	0.305289	0.668333
     29453.60	0.12700	1743631.0	1285079.0	658721.0	0.305150	0.668275
     29454.10	0.12001	1631404.0	1202707.0	616851.0	0.304866	0.667703
     29454.60	0.12574	1680059.0	1238598.0	635552.0	0.304849	0.667241
     29455.10	0.12655	1723179.0	1270542.0	651512.0	0.304727	0.667903
     29455.60	0.12095	1652425.0	1218386.0	625352.0	0.304717	0.666968
     29456.10	0.12528	1737968.0	1281602.0	657932.0	0.304606	0.666765
     29456.59	0.11854	1588486.0	1171184.0	601768.0	0.304766	0.665898
     29457.09	0.12252	1683306.0	1241563.0	638108.0	0.304389	0.665619
     29457.59	0.11463	1527482.0	1126746.0	579388.0	0.304287	0.665117
     29458.09	0.11675	1616878.0	1192143.0	613340.0	0.304745	0.664588
     29458.59	0.12381	1722494.0	1270080.0	653401.0	0.304693	0.664644
     29459.09	0.12133	1610461.0	1188069.0	611511.0	0.304191	0.664152
     29459.59	0.11320	1541701.0	1137124.0	585291.0	0.304384	0.664148
     29460.09	0.10261	1388799.0	1024708.0	527757.0	0.304032	0.663527
     29460.59	0.11762	1601658.0	1181465.0	608690.0	0.304284	0.663201
     29461.09	0.12155	1667833.0	1230490.0	634012.0	0.304113	0.663100
     29461.59	0.11551	1539344.0	1135841.0	585470.0	0.303983	0.662714
     29462.09	0.13010	1734349.0	1279913.0	660413.0	0.303840	0.661682
     29462.58	0.14338	1938321.0	1430463.0	737998.0	0.303824	0.661812
     29463.08	0.13572	1850282.0	1365655.0	704867.0	0.303704	0.661380
     29463.58	0.11386	1527753.0	1127144.0	581798.0	0.304111	0.661319
     29464.08	0.11936	1612573.0	1190209.0	614654.0	0.303702	0.660825
     29464.58	0.13546	1821332.0	1344486.0	694416.0	0.303556	0.660696
     29465.08	0.13016	1776089.0	1310731.0	677462.0	0.303829	0.659987
     29465.58	0.12674	1729775.0	1277103.0	659979.0	0.303397	0.660141
     29466.08	0.13065	1769385.0	1306252.0	675093.0	0.303470	0.660067
     29466.58	0.14540	1969884.0	1454192.0	752162.0	0.303524	0.659254
     29467.08	0.16929	2279123.0	1682648.0	870019.0	0.303422	0.659609
     29467.58	0.10048	1352280.0	998441.0	516702.0	0.303352	0.658729
     29468.08	0.10622	1464949.0	1081832.0	559813.0	0.303165	0.658808
     29468.58	0.11733	1596030.0	1178737.0	610333.0	0.303076	0.658194
     29469.08	0.13996	1881942.0	1389888.0	719573.0	0.303081	0.658320
     29469.58	0.13213	1797222.0	1327445.0	687354.0	0.302986	0.658162
     29470.07	0.14265	1917012.0	1415993.0	733506.0	0.302937	0.657751
     29470.57	0.13763	1857537.0	1372377.0	711103.0	0.302707	0.657482
     29471.07	0.14743	2006919.0	1482609.0	768214.0	0.302797	0.657490
     29471.57	0.10809	1471619.0	1087386.0	563507.0	0.302587	0.657352
     29472.07	0.13241	1804436.0	1333578.0	691689.0	0.302383	0.656484
     29472.57	0.13066	1767818.0	1305935.0	677282.0	0.302827	0.656587
     29473.07	0.12279	1707812.0	1261873.0	654324.0	0.302616	0.656750
     29473.57	0.12132	1638273.0	1210518.0	628151.0	0.302594	0.656023
     29474.07	0.13833	1872717.0	1384389.0	717741.0	0.302131	0.656905
     29474.57	0.13650	1838566.0	1358736.0	704784.0	0.302431	0.656419
     29475.07	0.12132	1632733.0	1206670.0	626149.0	0.302391	0.656031
     29475.57	0.10864	1458397.0	1078041.0	559335.0	0.302192	0.656152
     29476.07	0.12407	1680370.0	1242255.0	644891.0	0.302086	0.655602
     29476.57	0.13535	1808934.0	1337094.0	694005.0	0.302239	0.655775
     29477.07	0.11853	1579846.0	1168284.0	606446.0	0.301791	0.655676
     29477.57	0.13038	1757957.0	1299717.0	674779.0	0.302006	0.655517
     29478.07	0.12449	1674901.0	1238034.0	642560.0	0.302229	0.655820
     29478.57	0.11393	1519659.0	1124072.0	583578.0	0.301528	0.655535
     29479.07	0.11764	1574654.0	1163907.0	604599.0	0.302253	0.654972
     29479.57	0.12640	1706481.0	1261740.0	654986.0	0.301942	0.655633
     29480.07	0.11871	1580803.0	1169402.0	606958.0	0.301440	0.655788
     29480.57	0.12309	1663595.0	1230536.0	639272.0	0.301531	0.654875
     29481.07	0.12028	1629162.0	1205086.0	625739.0	0.301515	0.655373
     29481.57	0.13060	1767247.0	1307157.0	678920.0	0.301568	0.655107
     29482.07	0.11964	1627005.0	1203501.0	625033.0	0.301506	0.655186
     29482.57	0.13976	1874961.0	1387169.0	720515.0	0.301323	0.655054
     29483.07	0.14184	1943206.0	1437396.0	746337.0	0.301506	0.655411
     29483.57	0.11276	1523517.0	1126849.0	585051.0	0.301596	0.655481
     29484.07	0.13007	1769059.0	1308731.0	679314.0	0.301390	0.655730
     29484.57	0.12247	1699713.0	1257783.0	653315.0	0.301109	0.655047
     29485.07	0.12951	1736418.0	1284605.0	666812.0	0.301373	0.655698
     29485.57	0.12652	1734957.0	1284020.0	666789.0	0.300987	0.655277
     29486.07	0.12193	1631790.0	1207582.0	627199.0	0.301058	0.655111
     29486.57	0.12534	1664593.0	1231712.0	639938.0	0.301176	0.654789
     29487.07	0.13387	1743914.0	1290524.0	669968.0	0.301084	0.655574
     29487.57	0.11864	1584640.0	1173113.0	609106.0	0.300696	0.655424
     29488.07	0.12229	1633674.0	1209021.0	627767.0	0.301021	0.655397
     29488.57	0.12206	1650040.0	1221257.0	634032.0	0.300919	0.655537
     29489.07	0.12472	1653447.0	1223438.0	635036.0	0.301197	0.655739
     29489.57	0.13605	1841085.0	1362856.0	707490.0	0.300773	0.655614
     29490.07	0.15577	2092663.0	1549522.0	804308.0	0.300491	0.655719
     29490.57	0.14032	1927962.0	1427495.0	741007.0	0.300542	0.655666
     29491.07	0.10391	1389918.0	1029038.0	534240.0	0.300620	0.655534
     29491.57	0.11170	1488317.0	1101745.0	571808.0	0.300751	0.655847
     29492.07	0.12548	1682771.0	1245973.0	646925.0	0.300525	0.655442
     29492.57	0.12214	1666984.0	1234232.0	640769.0	0.300567	0.655535
     29493.07	0.13077	1767659.0	1308775.0	679406.0	0.300564	0.655628
     29493.57	0.13437	1825291.0	1351549.0	701456.0	0.300488	0.655848
     29494.07	0.12197	1659183.0	1228370.0	637668.0	0.300637	0.655626
     29494.57	0.12715	1684733.0	1247926.0	647641.0	0.300124	0.655902
     29495.07	0.11353	1524312.0	1129026.0	586170.0	0.300188	0.655501
     29495.57	0.10759	1439433.0	1066216.0	553278.0	0.300133	0.656011
     29496.07	0.12305	1665420.0	1233278.0	640347.0	0.300402	0.655421
     29496.57	0.13337	1806283.0	1337867.0	694340.0	0.300195	0.655870
     29497.07	0.12444	1695210.0	1255586.0	651937.0	0.300204	0.655410
     29497.57	0.13695	1823641.0	1350966.0	701058.0	0.300015	0.655985
     29498.07	0.10550	1430227.0	1059638.0	549924.0	0.299906	0.655903
     29498.57	0.11575	1551257.0	1148876.0	596006.0	0.300281	0.656289
     29499.07	0.099389	1290237.0	956146.0	496429.0	0.299671	0.655470
     29499.57	0.10561	1386969.0	1027455.0	533345.0	0.300036	0.655672
     29500.07	0.12169	1626913.0	1205632.0	626029.0	0.299680	0.655362
     29500.58	0.12435	1650952.0	1223055.0	635028.0	0.300000	0.655438
     29501.08	0.11210	1504315.0	1114598.0	578648.0	0.299844	0.655555
     29501.58	0.13314	1787651.0	1324817.0	687587.0	0.299628	0.655841
     29502.08	0.13286	1756631.0	1302133.0	675909.0	0.299394	0.655701
     29502.58	0.12638	1648522.0	1221727.0	634462.0	0.299614	0.655243
     29503.08	0.12704	1720636.0	1275312.0	661783.0	0.299503	0.656008
     29503.58	0.13308	1760592.0	1305077.0	677512.0	0.299388	0.655590
     29504.08	0.12508	1681282.0	1246198.0	647041.0	0.299459	0.655443
     29504.58	0.13216	1778390.0	1317858.0	684302.0	0.299701	0.655364
     29505.08	0.14819	1952004.0	1447033.0	751363.0	0.299341	0.655382
     29505.58	0.13593	1775753.0	1316555.0	683720.0	0.299206	0.655225
     29506.08	0.15217	2027499.0	1503163.0	780746.0	0.299231	0.655077
     29506.58	0.098560	1304583.0	967125.0	502578.0	0.299311	0.654577
     29507.08	0.13913	1842572.0	1366102.0	710070.0	0.299201	0.654353
     29507.58	0.10644	1370254.0	1016390.0	527845.0	0.298739	0.655210
     29508.09	0.13506	1790278.0	1327465.0	690062.0	0.299100	0.654245
     29508.59	0.14577	1949253.0	1444938.0	750755.0	0.299380	0.654742
     29509.09	0.16136	2146613.0	1591619.0	827350.0	0.299140	0.654279
     29509.59	0.18523	2416600.0	1791819.0	931597.0	0.299130	0.654086
     29510.09	0.10771	1438527.0	1066720.0	554836.0	0.299031	0.653671
     29510.59	0.068047	909642.0	674909.0	350896.0	0.298473	0.654088
     29511.09	0.12793	1680784.0	1246935.0	648591.0	0.298572	0.653642
     29511.59	0.12461	1651177.0	1224881.0	637142.0	0.298645	0.653606
     29512.09	0.13611	1790899.0	1328468.0	691034.0	0.298691	0.653593
     29512.59	0.12043	1596516.0	1184322.0	616374.0	0.298653	0.653072
     29513.09	0.12180	1594047.0	1182340.0	615322.0	0.298781	0.653105
     29513.60	0.13149	1738534.0	1289791.0	671452.0	0.298562	0.652793
     29514.10	0.12093	1618729.0	1200950.0	625243.0	0.298528	0.652728
     29514.60	0.12645	1687994.0	1252001.0	651744.0	0.298798	0.652847
     29515.10	0.12880	1715562.0	1273009.0	662992.0	0.298357	0.652376
     29515.60	0.11909	1610204.0	1195005.0	622433.0	0.298211	0.652270
     29516.10	0.13496	1802740.0	1337400.0	696734.0	0.298580	0.652079
     29516.60	0.12578	1677277.0	1244449.0	648470.0	0.298479	0.651832
     29517.10	0.11967	1597999.0	1185470.0	617870.0	0.298613	0.651617
     29517.60	0.11512	1497368.0	1111148.0	579589.0	0.298315	0.650830
     29518.10	0.12055	1565482.0	1161561.0	606072.0	0.298429	0.650521
     29518.61	0.13090	1714803.0	1272283.0	663582.0	0.298485	0.650916
     29519.11	0.11732	1555988.0	1154495.0	602482.0	0.298448	0.650361
     29519.61	0.12183	1607584.0	1193274.0	622995.0	0.298032	0.649918
     29520.11	0.11566	1537598.0	1140858.0	595561.0	0.298441	0.650032
     29520.61	0.13075	1732778.0	1285655.0	671175.0	0.298458	0.649994
     29521.11	0.13180	1731267.0	1284749.0	671212.0	0.298290	0.649234
     29521.61	0.12192	1620757.0	1202752.0	628450.0	0.298281	0.649111
     29522.11	0.12796	1678910.0	1246234.0	651644.0	0.298019	0.648383
     29522.62	0.12738	1679724.0	1246715.0	651800.0	0.298117	0.648530
     29523.12	0.13989	1876791.0	1392814.0	728490.0	0.298237	0.648108
     29523.62	0.13172	1780645.0	1321695.0	691312.0	0.298061	0.648079
     29524.12	0.12508	1660590.0	1232252.0	644855.0	0.298330	0.647573
     29524.62	0.11927	1585253.0	1176463.0	615816.0	0.298232	0.647320
     29525.12	0.11882	1586779.0	1177753.0	616598.0	0.298098	0.647146
     29525.62	0.12194	1626395.0	1207390.0	632289.0	0.297905	0.646870
     29526.12	0.12322	1611213.0	1196011.0	626577.0	0.297995	0.646475
     29526.63	0.12866	1726689.0	1281942.0	671774.0	0.297830	0.646209
     29527.13	0.12485	1678865.0	1246148.0	653155.0	0.298061	0.645998
     29527.63	0.12994	1731439.0	1285356.0	673967.0	0.297917	0.645610
     29528.13	0.13223	1748653.0	1298011.0	680867.0	0.298013	0.645221
     29528.63	0.13155	1734965.0	1288243.0	675976.0	0.297708	0.644877
     29529.13	0.12565	1675196.0	1243533.0	652443.0	0.297974	0.644988
     29529.64	0.12960	1673010.0	1242021.0	652380.0	0.297885	0.643868
     29530.14	0.12567	1651775.0	1226139.0	643869.0	0.297980	0.644130
     29530.64	0.12198	1620052.0	1202756.0	631704.0	0.297843	0.643950
     29531.14	0.13068	1713839.0	1272592.0	668584.0	0.297680	0.643649
     29531.64	0.12718	1677472.0	1245679.0	654841.0	0.297607	0.643044
     29532.14	0.12227	1622950.0	1204979.0	633834.0	0.297783	0.642430
     29532.64	0.13254	1725631.0	1281704.0	674057.0	0.297402	0.642631
     29533.15	0.11839	1560382.0	1158719.0	609766.0	0.297616	0.641995
     29533.65	0.12278	1620472.0	1203498.0	633024.0	0.297485	0.642479
     29534.15	0.11902	1581688.0	1174859.0	618580.0	0.297344	0.641477
     29534.65	0.12486	1629436.0	1210528.0	637590.0	0.297177	0.641116
     29535.15	0.11485	1503706.0	1116835.0	588028.0	0.297434	0.641480
     29535.65	0.11903	1568712.0	1165205.0	613861.0	0.297358	0.640884
     29536.16	0.10988	1442484.0	1071691.0	564669.0	0.297129	0.640753
     29536.66	0.12962	1752446.0	1301830.0	685990.0	0.297242	0.640663
     29537.16	0.11450	1501015.0	1114723.0	587698.0	0.297536	0.640148
     29537.66	0.10932	1405052.0	1043734.0	550510.0	0.297270	0.639715
     29538.16	0.11890	1567607.0	1164575.0	614171.0	0.297194	0.639838
     29538.67	0.10819	1455475.0	1081354.0	570520.0	0.297118	0.639421
     29539.17	0.11995	1569162.0	1165658.0	615555.0	0.297256	0.638517
     29539.67	0.13792	1801171.0	1338523.0	706648.0	0.296870	0.638789
     29540.17	0.12860	1702289.0	1264485.0	668003.0	0.297309	0.638128
     29540.67	0.10672	1405200.0	1043910.0	551414.0	0.297206	0.638243
     29541.17	0.13165	1714765.0	1274224.0	673582.0	0.296939	0.637483
     29541.68	0.13284	1743512.0	1295594.0	685101.0	0.296932	0.637158
     29542.18	0.12978	1684802.0	1251943.0	661987.0	0.296951	0.637206
     29542.68	0.13812	1799920.0	1337215.0	707290.0	0.297153	0.636904
     29543.18	0.13034	1687186.0	1253801.0	663396.0	0.296882	0.636563
     29543.68	0.13327	1737997.0	1291804.0	683552.0	0.296694	0.636492
     29544.19	0.14870	1915013.0	1423349.0	753311.0	0.296712	0.636290
     29544.69	0.12174	1579790.0	1174028.0	621710.0	0.296851	0.635722
     29545.19	0.10685	1427625.0	1061252.0	561941.0	0.296563	0.635808
     29545.69	0.12389	1621091.0	1204627.0	637954.0	0.296929	0.635659
     29546.19	0.13868	1825580.0	1357081.0	718856.0	0.296562	0.635430
     29546.70	0.13540	1770669.0	1315945.0	697090.0	0.296802	0.635396
     29547.20	0.12487	1653016.0	1228864.0	651099.0	0.296511	0.635184
     29547.70	0.15494	2046101.0	1521141.0	806414.0	0.296475	0.634619
     29548.20	0.14156	1858003.0	1380924.0	732096.0	0.296749	0.634596
     29548.71	0.11963	1592173.0	1183931.0	627368.0	0.296259	0.635062
     29549.21	0.12499	1664806.0	1237748.0	656606.0	0.296415	0.633965
     29549.71	0.12936	1713217.0	1273644.0	675399.0	0.296491	0.634334
     29550.21	0.13368	1763041.0	1311063.0	695312.0	0.296202	0.634233
     29550.71	0.12655	1657416.0	1232598.0	654027.0	0.296136	0.633731
     29551.22	0.12148	1567471.0	1165554.0	618873.0	0.296267	0.633052
     29551.72	0.13310	1748500.0	1300159.0	690344.0	0.296272	0.633052
     29552.22	0.11571	1520646.0	1131009.0	600370.0	0.296025	0.633319
     29552.72	0.12574	1635338.0	1216076.0	645810.0	0.296220	0.632879
     29553.23	0.12652	1640140.0	1219378.0	647684.0	0.296441	0.632693
     29553.73	0.13345	1729323.0	1286054.0	683265.0	0.296151	0.632451
     29554.23	0.12674	1598986.0	1189124.0	631737.0	0.296153	0.632499
     29554.73	0.11882	1536190.0	1142651.0	606955.0	0.295954	0.632652
     29555.24	0.12923	1684612.0	1252726.0	665692.0	0.296213	0.632250
     29555.74	0.12423	1615418.0	1201373.0	638609.0	0.296129	0.631928
     29556.24	0.12718	1703508.0	1267228.0	673706.0	0.295858	0.631793
     29556.74	0.11481	1497241.0	1113795.0	591978.0	0.295851	0.632059
     29557.24	0.12209	1562767.0	1162410.0	618044.0	0.295963	0.631691
     29557.75	0.12967	1652775.0	1229405.0	654086.0	0.295925	0.631047
     29558.25	0.11670	1525212.0	1134664.0	603495.0	0.295797	0.631354
     29558.75	0.11460	1481136.0	1101803.0	586060.0	0.295861	0.631281
     29559.26	0.13507	1770756.0	1317684.0	700652.0	0.295531	0.631620
     29559.76	0.13699	1786590.0	1329362.0	707147.0	0.295610	0.631216
     29560.26	0.10817	1424203.0	1059391.0	563549.0	0.295918	0.631195
     29560.76	0.12770	1676853.0	1247318.0	663601.0	0.295923	0.631070
     29561.27	0.13655	1787175.0	1329849.0	707611.0	0.295571	0.630926
     29561.77	0.12635	1636503.0	1217318.0	647935.0	0.295912	0.630615
     29562.27	0.13603	1783802.0	1327393.0	706349.0	0.295530	0.630863
     29562.77	0.11466	1490848.0	1109103.0	590345.0	0.295794	0.630600
     29563.28	0.15039	1983120.0	1475608.0	785208.0	0.295601	0.630877
     29563.78	0.15370	2030840.0	1511429.0	804534.0	0.295394	0.630548
     29564.28	0.098085	1288492.0	958858.0	510378.0	0.295485	0.630591
     29564.78	0.093339	1214570.0	903879.0	481213.0	0.295450	0.630386
     29565.29	0.12214	1593624.0	1186109.0	631401.0	0.295332	0.630492
     29565.79	0.12465	1643718.0	1223274.0	651288.0	0.295430	0.630334
     29566.29	0.12454	1643716.0	1223569.0	651333.0	0.295188	0.630506
     29566.80	0.13107	1677439.0	1248258.0	664614.0	0.295519	0.630298
     29567.30	0.17169	2281317.0	1698062.0	904101.0	0.295265	0.630302
     29567.80	0.17769	2354302.0	1752957.0	933883.0	0.294940	0.629708
     29568.30	0.056491	737719.0	549312.0	292626.0	0.294896	0.629771
     29568.81	0.10442	1373727.0	1022674.0	544481.0	0.295107	0.630343
     29569.31	0.13536	1779840.0	1324915.0	706011.0	0.295175	0.629473
     29569.81	0.13081	1726410.0	1285306.0	684967.0	0.295047	0.629381
     29570.32	0.12141	1626842.0	1211400.0	645553.0	0.294864	0.629425
     29570.82	0.14815	1984208.0	1477231.0	787200.0	0.295050	0.629442
     29571.32	0.11165	1497949.0	1115346.0	594564.0	0.294932	0.629092
     29571.82	0.14804	1938849.0	1443525.0	769296.0	0.295006	0.629368
     29572.33	0.10780	1426272.0	1062027.0	566015.0	0.294885	0.629314
     29572.83	0.11917	1563597.0	1164443.0	620663.0	0.294746	0.629210
     29573.33	0.12111	1527776.0	1137615.0	606439.0	0.294879	0.629085
     29573.84	0.12018	1561853.0	1163481.0	620317.0	0.294457	0.628941
     29574.34	0.13644	1764076.0	1313906.0	700214.0	0.294623	0.629374
     29574.84	0.10869	1415652.0	1054328.0	562015.0	0.294687	0.629130
     29575.35	0.12259	1600890.0	1192259.0	635484.0	0.294710	0.629218
     29575.85	0.11520	1482625.0	1104369.0	588784.0	0.294540	0.628970
     29576.35	0.11189	1412690.0	1052550.0	561161.0	0.294280	0.628963
     29576.85	0.11566	1499716.0	1117528.0	595960.0	0.294157	0.628701
     29577.36	0.11212	1452114.0	1081517.0	576889.0	0.294656	0.628470
     29577.86	0.12322	1571027.0	1170784.0	624284.0	0.294056	0.628823
     29578.36	0.10922	1396765.0	1040791.0	554930.0	0.294178	0.628894
     29578.87	0.12184	1599222.0	1191700.0	635318.0	0.294136	0.629010
     29579.37	0.12988	1673831.0	1247414.0	665289.0	0.294042	0.628606
     29579.87	0.14584	1880886.0	1401708.0	747558.0	0.294051	0.628635
     29580.38	0.11369	1493681.0	1112832.0	593545.0	0.294335	0.628550
     29580.88	0.11053	1444876.0	1076872.0	574422.0	0.293963	0.628452
     29581.38	0.13197	1727285.0	1287183.0	686727.0	0.294095	0.628275
     29581.89	0.12895	1705484.0	1271133.0	678438.0	0.293940	0.627871
     29582.39	0.13561	1744894.0	1300926.0	694133.0	0.293617	0.628168
     29582.89	0.12360	1608149.0	1198718.0	639530.0	0.293831	0.628274
     29583.40	0.13911	1788989.0	1333517.0	711776.0	0.293831	0.627812
     29583.90	0.12650	1619853.0	1207637.0	644163.0	0.293670	0.628469
     29584.40	0.12117	1580093.0	1178275.0	628831.0	0.293432	0.627944
     29584.91	0.11938	1549773.0	1155489.0	616738.0	0.293585	0.627835
     29585.41	0.14255	1856671.0	1384712.0	739142.0	0.293293	0.627757
     29585.91	0.12495	1676822.0	1250488.0	667396.0	0.293366	0.627906
     29586.42	0.12865	1686781.0	1258172.0	671404.0	0.293162	0.628044
     29586.92	0.14170	1858900.0	1386562.0	740284.0	0.293158	0.627549
     29587.42	0.13277	1725091.0	1286631.0	686867.0	0.293253	0.627642
     29587.93	0.14268	1828986.0	1363948.0	728273.0	0.293378	0.627463
     29588.43	0.13040	1739501.0	1297648.0	693012.0	0.293045	0.627261
     29588.93	0.12184	1602474.0	1195257.0	638383.0	0.293187	0.627178
     29589.44	0.13563	1792127.0	1337441.0	714097.0	0.292645	0.627495
     29589.94	0.12914	1707402.0	1273558.0	680149.0	0.293158	0.627258
     29590.45	0.12339	1615888.0	1205832.0	644082.0	0.292715	0.627099
     29590.95	0.15522	2029841.0	1514607.0	809116.0	0.292801	0.626969
     29591.45	0.10869	1417319.0	1057620.0	565033.0	0.292746	0.626892
     29591.96	0.13419	1761959.0	1314761.0	702336.0	0.292771	0.626998
     29592.46	0.10293	1346320.0	1004483.0	536871.0	0.292902	0.626470
     29592.96	0.12762	1689938.0	1260898.0	674153.0	0.292868	0.626122
     29593.47	0.12908	1699176.0	1268384.0	677865.0	0.292400	0.626551
     29593.97	0.12679	1649889.0	1231571.0	658355.0	0.292417	0.626302
     29594.48	0.12320	1591180.0	1187616.0	635387.0	0.292528	0.625469
     29594.98	0.14177	1820092.0	1358586.0	726322.0	0.292443	0.626206
     29595.48	0.12745	1640176.0	1224527.0	654881.0	0.292249	0.625856
     29595.99	0.11107	1465483.0	1094143.0	585240.0	0.292213	0.625705
     29596.49	0.11647	1548714.0	1156269.0	618252.0	0.292226	0.626058
     29596.99	0.12465	1614267.0	1205125.0	645026.0	0.292298	0.625048
     29597.50	0.11398	1476684.0	1102351.0	589664.0	0.292354	0.625648
     29598.00	0.12393	1651008.0	1232621.0	659691.0	0.292243	0.625127
     29598.51	0.12474	1643561.0	1227373.0	656953.0	0.291989	0.625019
     29599.01	0.11498	1487594.0	1110531.0	594487.0	0.292322	0.624895
     29599.51	0.12917	1706652.0	1274289.0	682086.0	0.292145	0.624988
     29600.02	0.13132	1720660.0	1284680.0	687999.0	0.292198	0.624478
     29600.52	0.12031	1569734.0	1172610.0	627999.0	0.291674	0.624449
     29601.03	0.13175	1727497.0	1290342.0	691226.0	0.291766	0.624196
     29601.53	0.13013	1718609.0	1283787.0	687648.0	0.291701	0.624293
     29602.03	0.12977	1688182.0	1260868.0	675697.0	0.291852	0.623811
     29602.54	0.13353	1711679.0	1278428.0	685099.0	0.291844	0.623823
     29603.04	0.13058	1685437.0	1258923.0	674874.0	0.291768	0.623486
     29603.55	0.11530	1473823.0	1101078.0	590265.0	0.291570	0.623473
     29604.05	0.12462	1622800.0	1212510.0	649880.0	0.291460	0.623660
     29604.55	0.12565	1649469.0	1232107.0	660862.0	0.291728	0.622936
     29605.06	0.11952	1569886.0	1172516.0	629013.0	0.291851	0.622755
     29605.56	0.12968	1705245.0	1273913.0	683244.0	0.291616	0.622997
     29606.07	0.13509	1754604.0	1310949.0	703579.0	0.291492	0.622326
     29606.57	0.12734	1695600.0	1266831.0	679662.0	0.291518	0.622678
     29607.07	0.13149	1709976.0	1277908.0	685817.0	0.291255	0.622369
     29607.58	0.13300	1746398.0	1305126.0	700726.0	0.291256	0.621938
     29608.08	0.13799	1805177.0	1348782.0	724202.0	0.291457	0.621887
     29608.59	0.12370	1625403.0	1214800.0	652357.0	0.291176	0.621743
     29609.09	0.12723	1662770.0	1242435.0	667379.0	0.291412	0.621470
     29609.60	0.13218	1727213.0	1290603.0	693516.0	0.291400	0.621091
     29610.10	0.13165	1699140.0	1269424.0	682017.0	0.291559	0.621264
     29610.60	0.12568	1671850.0	1249394.0	671561.0	0.291272	0.620809
     29611.11	0.12271	1600640.0	1196545.0	643264.0	0.290965	0.620638
     29611.61	0.12616	1689131.0	1262559.0	678737.0	0.291074	0.620662
     29612.12	0.11906	1572121.0	1175062.0	631759.0	0.291105	0.620568
     29612.62	0.12659	1662637.0	1242764.0	668494.0	0.291067	0.620066
     29613.13	0.12251	1600134.0	1196238.0	643538.0	0.290906	0.619956
     29613.63	0.11617	1527097.0	1141779.0	614484.0	0.290781	0.619560
     29614.13	0.12190	1590052.0	1188872.0	639533.0	0.290762	0.620022
     29614.64	0.12169	1623236.0	1213271.0	653177.0	0.291102	0.619227
     29615.14	0.12011	1563222.0	1168463.0	629039.0	0.291060	0.619251
     29615.65	0.12002	1605749.0	1200652.0	646591.0	0.290726	0.618906
     29616.15	0.11232	1427915.0	1067626.0	575135.0	0.290778	0.618588
     29616.66	0.11387	1482824.0	1108846.0	597321.0	0.290629	0.618620
     29617.16	0.11058	1482865.0	1108474.0	597197.0	0.290992	0.618493
     29617.67	0.12219	1600690.0	1196585.0	645091.0	0.290963	0.617836
     29618.17	0.11555	1536150.0	1148698.0	619112.0	0.290650	0.618098
     29618.68	0.11958	1549786.0	1158882.0	624965.0	0.290661	0.617515
     29619.18	0.11827	1558100.0	1165573.0	628491.0	0.290254	0.617646
     29619.68	0.11732	1531096.0	1144920.0	617565.0	0.290649	0.617306
     29620.19	0.12616	1636299.0	1223600.0	660206.0	0.290640	0.617001
     29620.69	0.12395	1599501.0	1196466.0	645461.0	0.290319	0.617163
     29621.20	0.13031	1682774.0	1258546.0	679160.0	0.290487	0.616856
     29621.70	0.12691	1647508.0	1232210.0	665086.0	0.290455	0.616648
     29622.21	0.13473	1751486.0	1310211.0	707392.0	0.290276	0.616359
     29622.71	0.12814	1682807.0	1258953.0	679873.0	0.290183	0.616130
     29623.22	0.12450	1619519.0	1210891.0	654286.0	0.290773	0.615567
     29623.72	0.15320	2014354.0	1506508.0	814086.0	0.290504	0.615484
     29624.23	0.11611	1494347.0	1118107.0	603866.0	0.290052	0.616040
     29624.73	0.11631	1520913.0	1137523.0	615255.0	0.290458	0.614572
     29625.24	0.12992	1683466.0	1259642.0	681047.0	0.290027	0.614952
     29625.74	0.12216	1626875.0	1216891.0	657996.0	0.290362	0.614856
     29626.25	0.13844	1839784.0	1376167.0	744300.0	0.290346	0.614613
     29626.75	0.13851	1814514.0	1357341.0	734397.0	0.290290	0.614233
     29627.26	0.13738	1801432.0	1347994.0	729344.0	0.289964	0.614227
     29627.76	0.13418	1757153.0	1314458.0	711676.0	0.290270	0.613557
     29628.27	0.12245	1617434.0	1210549.0	655475.0	0.289767	0.613469
     29628.77	0.13001	1730743.0	1294827.0	701011.0	0.290174	0.613609
     29629.28	0.13093	1713069.0	1281917.0	694153.0	0.289930	0.613419
     29629.78	0.13124	1739627.0	1301929.0	705535.0	0.289824	0.612646
     29630.28	0.12722	1683912.0	1260318.0	682900.0	0.289756	0.612771
     29630.79	0.13723	1801875.0	1348853.0	731216.0	0.289573	0.612301
     29631.29	0.12280	1626798.0	1217627.0	659821.0	0.289710	0.612691
     29631.80	0.13051	1663281.0	1244546.0	674943.0	0.290021	0.611898
     29632.31	0.12896	1628229.0	1219003.0	661067.0	0.289460	0.611933
     29632.81	0.12093	1581444.0	1184212.0	642185.0	0.289261	0.611956
     29633.32	0.12250	1561366.0	1168746.0	634005.0	0.289630	0.611630
     29633.82	0.12440	1632727.0	1222322.0	663053.0	0.289499	0.611653
     29634.33	0.12679	1622228.0	1214234.0	659091.0	0.289687	0.611007
     29634.83	0.13005	1694002.0	1267872.0	688050.0	0.289754	0.611234
     29635.34	0.12331	1592146.0	1191878.0	647072.0	0.289553	0.610828
     29635.84	0.13217	1702031.0	1274084.0	692034.0	0.289595	0.610348
     29636.35	0.11797	1535497.0	1149712.0	624407.0	0.289343	0.610464
     29636.85	0.12200	1601304.0	1198860.0	650870.0	0.289447	0.610816
     29637.36	0.12852	1688377.0	1264108.0	686911.0	0.289401	0.609917
     29637.86	0.11669	1487093.0	1113587.0	605127.0	0.289237	0.609903
     29638.37	0.11737	1504664.0	1126495.0	612274.0	0.289459	0.609686
     29638.87	0.13003	1686469.0	1262761.0	685999.0	0.289336	0.610180
     29639.38	0.12115	1565815.0	1172364.0	637411.0	0.289384	0.609363
     29639.88	0.12450	1617175.0	1211474.0	658675.0	0.288843	0.609363
     29640.39	0.11497	1476642.0	1106005.0	601340.0	0.289016	0.609349
     29640.89	0.12926	1637318.0	1226003.0	666948.0	0.289300	0.608802
     29641.40	0.11875	1514363.0	1134174.0	617140.0	0.289090	0.608564
     29641.90	0.12904	1694534.0	1268780.0	690024.0	0.289352	0.609085
     29642.41	0.13231	1705976.0	1277848.0	695061.0	0.288960	0.608933
     29642.91	0.14639	1928011.0	1444221.0	786000.0	0.288919	0.608369
     29643.42	0.12260	1545912.0	1158246.0	630207.0	0.288707	0.608614
     29643.93	0.11300	1446656.0	1083654.0	590018.0	0.288916	0.607941
     29644.43	0.14274	1806983.0	1353615.0	736973.0	0.288880	0.607983
     29644.94	0.11527	1496994.0	1121227.0	610645.0	0.289035	0.607663
     29645.44	0.12156	1560297.0	1168935.0	636622.0	0.288783	0.607672
     29645.95	0.12870	1636844.0	1226251.0	667519.0	0.288808	0.608149
     29646.45	0.11666	1499304.0	1123226.0	612156.0	0.288796	0.606973
     29646.96	0.13047	1673737.0	1254119.0	683096.0	0.288626	0.607553
     29647.46	0.12918	1661521.0	1245116.0	678337.0	0.288505	0.607340
     29647.97	0.12415	1570406.0	1176715.0	641215.0	0.288608	0.607117
     29648.48	0.13776	1752606.0	1313337.0	715457.0	0.288533	0.607405
     29648.98	0.12565	1566565.0	1174334.0	640348.0	0.288184	0.606445
     29649.49	0.12997	1662263.0	1245729.0	678806.0	0.288459	0.607141
     29649.99	0.12012	1536843.0	1151903.0	627603.0	0.288315	0.607263
     29650.50	0.12837	1654858.0	1240135.0	676342.0	0.288495	0.606277
     29651.00	0.13966	1813552.0	1359123.0	741219.0	0.288448	0.606299
     29651.51	0.12298	1596515.0	1196790.0	652813.0	0.288180	0.606108
     29652.02	0.11799	1562016.0	1170883.0	638234.0	0.288219	0.606808
     29652.52	0.16594	2137416.0	1602534.0	873848.0	0.288011	0.606435
     29653.03	0.10371	1330563.0	997663.0	544207.0	0.287942	0.606086
     29653.53	0.12419	1568278.0	1175706.0	641374.0	0.288109	0.606011
     29654.04	0.11690	1510128.0	1132020.0	617635.0	0.288191	0.605861
     29654.54	0.12054	1543844.0	1157257.0	631413.0	0.288223	0.605848
     29655.05	0.12743	1626784.0	1219708.0	665793.0	0.287994	0.605388
     29655.56	0.13955	1788289.0	1340832.0	731760.0	0.287969	0.605593
     29656.06	0.12411	1633760.0	1224914.0	668218.0	0.288013	0.606011
     29656.57	0.15386	1981138.0	1485676.0	810829.0	0.287802	0.605568
     29657.07	0.082121	1067274.0	800481.0	436718.0	0.287650	0.605925
     29657.58	0.10384	1344876.0	1008610.0	550358.0	0.287729	0.605759
     29658.09	0.096096	1254120.0	940498.0	513091.0	0.287780	0.605956
     29658.59	0.12209	1574685.0	1181557.0	644658.0	0.287222	0.605868
     29659.10	0.12254	1607664.0	1205795.0	658126.0	0.287643	0.605498
     29659.60	0.11251	1475704.0	1107035.0	604423.0	0.287450	0.605166
     29660.11	0.13286	1705833.0	1279910.0	698800.0	0.287264	0.605180
     29660.62	0.12924	1675404.0	1256963.0	686223.0	0.287356	0.605251
     29661.12	0.10373	1354879.0	1016388.0	554877.0	0.287457	0.605264
     29661.63	0.12570	1593231.0	1195100.0	652693.0	0.287534	0.604878
     29662.13	0.12466	1615648.0	1212367.0	661932.0	0.287161	0.605167
     29662.64	0.13182	1702393.0	1277038.0	697607.0	0.287492	0.604643
     29663.15	0.13922	1781092.0	1336087.0	729825.0	0.287481	0.604696
     29663.65	0.12969	1618733.0	1214590.0	663582.0	0.287237	0.604509
     29664.16	0.13999	1791074.0	1343939.0	734487.0	0.287211	0.604188
     29664.66	0.15968	1992167.0	1495112.0	816602.0	0.287022	0.604805
     29665.17	0.13782	1784223.0	1339036.0	731667.0	0.287033	0.604380
     29665.68	0.10842	1413942.0	1060910.0	580055.0	0.287255	0.603759
     29666.18	0.093625	1193640.0	895953.0	489664.0	0.286875	0.604169
     29666.69	0.12836	1633982.0	1226259.0	670264.0	0.287052	0.604052
     29667.19	0.12940	1659964.0	1245722.0	681066.0	0.287081	0.603811
     29667.70	0.14520	1839970.0	1381366.0	754905.0	0.286676	0.604236
     29668.21	0.13308	1730512.0	1299160.0	710287.0	0.286699	0.603804
     29668.71	0.14967	1905073.0	1429960.0	781946.0	0.286874	0.603616
     29669.22	0.10662	1356425.0	1018269.0	556766.0	0.286748	0.603714
     29669.73	0.13160	1710094.0	1283940.0	702233.0	0.286615	0.603423
     29670.23	0.12129	1556305.0	1168075.0	639070.0	0.286957	0.603098
     29670.74	0.14238	1829006.0	1373040.0	750995.0	0.286745	0.603384
     29671.25	0.12523	1583483.0	1189108.0	650660.0	0.286423	0.602971
     29671.75	0.12950	1631652.0	1225185.0	670271.0	0.286501	0.603165
     29672.26	0.12529	1621881.0	1218052.0	666520.0	0.286334	0.602938
     29672.76	0.14583	1879928.0	1411935.0	772689.0	0.286272	0.602840
     29673.27	0.10829	1388029.0	1042857.0	570599.0	0.285921	0.603033
     29673.78	0.12840	1654144.0	1242315.0	679982.0	0.286307	0.602666
     29674.28	0.12439	1582261.0	1188586.0	650640.0	0.286090	0.602563
     29674.79	0.13816	1762362.0	1323580.0	724613.0	0.286315	0.602458
     29675.30	0.12118	1548101.0	1162789.0	636461.0	0.286208	0.602654
     29675.80	0.11600	1468979.0	1103679.0	604191.0	0.285918	0.602514
     29676.31	0.13317	1703228.0	1279314.0	700559.0	0.286201	0.602201
     29676.82	0.12248	1553713.0	1167002.0	638999.0	0.286209	0.602290
     29677.32	0.11840	1491505.0	1120827.0	613818.0	0.285719	0.602124
     29677.83	0.12304	1587783.0	1193111.0	653566.0	0.285775	0.601876
     29678.34	0.12572	1603611.0	1204901.0	660166.0	0.285861	0.601661
     29678.84	0.11650	1497071.0	1124888.0	616397.0	0.285827	0.601548
     29679.35	0.11731	1510132.0	1134674.0	621723.0	0.285852	0.601606
     29679.86	0.12596	1589860.0	1194374.0	654251.0	0.286024	0.601886
     29680.36	0.12426	1568118.0	1178328.0	645753.0	0.285780	0.601435
     29680.87	0.11877	1488296.0	1118582.0	613003.0	0.285570	0.601447
     29681.38	0.12242	1515298.0	1138917.0	624331.0	0.285534	0.601152
     29681.88	0.12633	1614496.0	1213400.0	665050.0	0.285596	0.601319
     29682.39	0.13838	1719476.0	1292183.0	708670.0	0.285687	0.600698
     29682.90	0.12163	1494195.0	1123313.0	615603.0	0.285305	0.601435
     29683.40	0.12878	1620162.0	1217955.0	667694.0	0.285353	0.601099
     29683.91	0.13313	1706723.0	1282790.0	703504.0	0.285538	0.600719
     29684.42	0.12760	1627651.0	1223575.0	671177.0	0.285361	0.600499
     29684.92	0.12103	1569768.0	1180106.0	647120.0	0.285324	0.600828
     29685.43	0.12151	1564490.0	1176162.0	645086.0	0.285303	0.600628
     29685.94	0.12894	1662062.0	1249660.0	685366.0	0.285187	0.600674
     29686.44	0.12220	1602600.0	1205073.0	661277.0	0.285087	0.600123
     29686.95	0.11734	1484650.0	1116339.0	612550.0	0.285124	0.600179
     29687.46	0.14055	1806780.0	1358828.0	745658.0	0.284924	0.600111
     29687.97	0.12251	1571664.0	1181709.0	648413.0	0.285173	0.600189
     29688.47	0.12533	1603244.0	1205550.0	661557.0	0.285093	0.600095
     29688.98	0.12840	1658947.0	1247182.0	684691.0	0.285296	0.599674
     29689.49	0.12531	1617204.0	1215993.0	667737.0	0.285138	0.599422
     29689.99	0.13451	1738198.0	1307262.0	717833.0	0.284914	0.599453
     29690.50	0.12038	1570462.0	1181265.0	648523.0	0.284784	0.599644
     29691.01	0.13224	1726092.0	1298043.0	713292.0	0.285002	0.598722
     29691.51	0.13045	1741238.0	1309265.0	719015.0	0.285130	0.599339
     29692.02	0.13642	1794315.0	1349266.0	740940.0	0.285063	0.599396
     29692.53	0.12054	1586392.0	1193095.0	655702.0	0.284911	0.598600
     29693.04	0.12754	1676852.0	1261354.0	692969.0	0.284732	0.598956
     29693.54	0.11138	1466509.0	1103190.0	606104.0	0.284679	0.598910
     29694.05	0.12727	1654123.0	1243830.0	683796.0	0.285076	0.598291
     29694.56	0.12864	1711547.0	1287643.0	707621.0	0.284584	0.598660
     29695.06	0.12265	1641236.0	1234784.0	678584.0	0.284554	0.598643
     29695.57	0.12978	1713149.0	1288708.0	708722.0	0.284693	0.597932
     29696.08	0.11674	1521531.0	1144544.0	629216.0	0.284711	0.598287
     29696.59	0.10381	1360791.0	1023750.0	562955.0	0.284594	0.598028
     29697.09	0.11535	1534646.0	1154606.0	634863.0	0.284541	0.598105
     29697.60	0.12124	1591513.0	1197118.0	658621.0	0.284768	0.597524
     29698.11	0.12287	1613698.0	1213735.0	667906.0	0.284826	0.597310
     29698.62	0.11443	1523437.0	1146567.0	630432.0	0.284197	0.598122
     29699.12	0.10858	1444547.0	1086699.0	598332.0	0.284651	0.596754
     29699.63	0.11695	1575192.0	1185421.0	652593.0	0.284279	0.596900
     29700.14	0.11476	1536488.0	1156126.0	636373.0	0.284425	0.597045
     29700.65	0.13132	1746884.0	1314175.0	723457.0	0.284625	0.596923
     29701.15	0.11475	1491488.0	1122367.0	617849.0	0.284334	0.596951
     29701.66	0.14379	1947778.0	1465577.0	806927.0	0.284440	0.596771
     29702.17	0.11171	1469416.0	1106128.0	608958.0	0.283999	0.596872
     29702.67	0.14004	1883785.0	1417558.0	780714.0	0.284347	0.596482
     29703.18	0.13054	1742499.0	1311426.0	722525.0	0.284205	0.596118
     29703.69	0.12790	1713811.0	1290040.0	710616.0	0.284046	0.596296
     29704.20	0.13098	1747151.0	1314939.0	724989.0	0.284196	0.595389
     29704.70	0.12519	1642186.0	1236065.0	681328.0	0.284095	0.595644
     29705.21	0.12688	1677294.0	1262188.0	695598.0	0.284335	0.595830
     29705.72	0.13429	1818431.0	1368724.0	754668.0	0.284095	0.595356
     29706.23	0.11807	1542504.0	1160970.0	639876.0	0.284151	0.595737
     29706.74	0.13574	1803936.0	1357983.0	748910.0	0.283970	0.595137
     29707.24	0.13094	1739532.0	1309612.0	722000.0	0.283885	0.595461
     29707.75	0.12346	1685459.0	1268522.0	699757.0	0.284185	0.594875
     29708.26	0.14504	1955870.0	1472407.0	812388.0	0.283937	0.594676
     29708.77	0.12302	1631703.0	1228156.0	677676.0	0.284110	0.594600
     29709.27	0.13537	1789847.0	1347187.0	743396.0	0.284111	0.594545
     29709.78	0.14060	1839664.0	1385407.0	764302.0	0.283589	0.594786
     29710.29	0.13066	1734516.0	1305496.0	720561.0	0.284145	0.594308
     29710.80	0.13254	1810642.0	1363610.0	752770.0	0.283546	0.594131
     29711.30	0.12458	1660499.0	1250128.0	689988.0	0.283872	0.594327
     29711.81	0.13569	1814173.0	1365739.0	754431.0	0.283934	0.593487
     29712.32	0.12682	1684380.0	1268534.0	700369.0	0.283536	0.594010
     29712.83	0.12647	1689882.0	1272695.0	703058.0	0.283522	0.593453
     29713.34	0.12209	1617048.0	1217826.0	672470.0	0.283535	0.593865
     29713.84	0.13696	1812488.0	1364767.0	754251.0	0.283717	0.593014
     29714.35	0.12168	1626149.0	1224238.0	676487.0	0.283896	0.593161
     29714.86	0.12220	1619246.0	1219135.0	673179.0	0.283819	0.593886
     29715.37	0.13080	1756691.0	1322951.0	731049.0	0.283567	0.593140
     29715.88	0.12309	1603792.0	1207982.0	668010.0	0.283420	0.592403
     29716.38	0.12426	1628900.0	1226989.0	678432.0	0.283342	0.592534
     29716.89	0.12368	1641387.0	1236039.0	683538.0	0.283630	0.592385
     29717.40	0.12244	1600047.0	1205131.0	666449.0	0.283445	0.592380
     29717.91	0.12521	1638499.0	1234534.0	682784.0	0.283087	0.592270
     29718.41	0.11399	1514622.0	1140414.0	630867.0	0.283775	0.592052
     29718.92	0.13285	1748855.0	1316952.0	728289.0	0.283641	0.592377
     29719.43	0.12361	1640088.0	1235515.0	683812.0	0.283262	0.591560
     29719.94	0.11644	1526900.0	1150111.0	636610.0	0.283381	0.591457
     29720.45	0.11155	1495846.0	1126733.0	623631.0	0.283370	0.591519
     29720.96	0.12405	1631442.0	1229195.0	680123.0	0.283105	0.591841
     29721.46	0.12673	1672765.0	1260314.0	697665.0	0.283117	0.591377
     29721.97	0.12148	1597875.0	1203687.0	666860.0	0.283285	0.590564
     29722.48	0.14199	1915149.0	1442495.0	799202.0	0.283421	0.590516
     29722.99	0.14049	1845868.0	1390806.0	770498.0	0.283066	0.590602
     29723.50	0.13959	1847854.0	1392639.0	771351.0	0.282824	0.590812
     29724.00	0.11416	1483541.0	1117628.0	619318.0	0.283223	0.590345
     29724.51	0.12044	1562648.0	1177627.0	652472.0	0.282880	0.590488
     29725.02	0.12967	1742713.0	1313317.0	727941.0	0.282887	0.590091
     29725.53	0.12033	1584273.0	1194224.0	661945.0	0.282629	0.590069
     29726.04	0.11645	1542642.0	1162415.0	644755.0	0.282997	0.589385
     29726.55	0.13007	1741651.0	1312525.0	727995.0	0.282881	0.589414
     29727.05	0.11886	1560880.0	1176662.0	652709.0	0.282568	0.589306
     29727.56	0.14247	1883097.0	1419533.0	787132.0	0.282590	0.589687
     29728.07	0.12341	1636548.0	1233659.0	684693.0	0.282605	0.588769
     29728.58	0.13126	1760565.0	1326884.0	736337.0	0.282801	0.588901
     29729.09	0.11627	1522348.0	1147299.0	637011.0	0.282843	0.588379
     29729.60	0.12625	1652441.0	1245349.0	690846.0	0.282838	0.589254
     29730.10	0.12762	1710803.0	1289894.0	716079.0	0.282403	0.588525
     29730.61	0.13644	1768052.0	1332354.0	739677.0	0.282931	0.588489
     29731.12	0.12273	1604139.0	1209625.0	671667.0	0.282277	0.588303
     29731.63	0.13612	1795584.0	1353781.0	751674.0	0.282429	0.588354
     29732.14	0.19179	2522228.0	1901536.0	1055848.0	0.282481	0.588318
     29732.65	0.13179	1706695.0	1286566.0	714588.0	0.282582	0.588026
     29733.15	0.064601	854515.0	644712.0	358176.0	0.281730	0.587779
     29733.66	0.11418	1496392.0	1128063.0	627055.0	0.282555	0.587223
     29734.17	0.12035	1612752.0	1216061.0	675529.0	0.282325	0.587876
     29734.68	0.12704	1683143.0	1269456.0	705411.0	0.282074	0.587563
     29735.19	0.11737	1559236.0	1175669.0	653664.0	0.282359	0.586999
     29735.70	0.13245	1768934.0	1334044.0	741375.0	0.282162	0.587464
     29736.21	0.16967	2259466.0	1703760.0	947356.0	0.282291	0.586918
     29736.71	0.13430	1772364.0	1336903.0	743224.0	0.281959	0.587114
     29737.22	0.065889	871813.0	657538.0	365669.0	0.282072	0.586774
     29737.73	0.10063	1342721.0	1012869.0	563354.0	0.281911	0.586634
     29738.24	0.10984	1452316.0	1095572.0	609507.0	0.281883	0.586381
     29738.75	0.11170	1476832.0	1113899.0	619733.0	0.282033	0.586333
     29739.26	0.13093	1728550.0	1304051.0	725903.0	0.281807	0.585814
     29739.77	0.14989	1963783.0	1481283.0	824359.0	0.281964	0.586058
     29740.28	0.13965	1832433.0	1382574.0	769551.0	0.281698	0.585895
     29740.78	0.094047	1226279.0	925155.0	515096.0	0.281778	0.585608
     29741.29	0.087077	1136252.0	857598.0	477446.0	0.281355	0.585684
     29741.80	0.12491	1636268.0	1234783.0	687401.0	0.281523	0.585733
     29742.31	0.12355	1622133.0	1224125.0	681854.0	0.281516	0.585166
     29742.82	0.14009	1828402.0	1379723.0	768383.0	0.281560	0.585350
     29743.33	0.14807	1931464.0	1457574.0	812100.0	0.281505	0.584905
     29743.84	0.11559	1555442.0	1173746.0	654331.0	0.281559	0.584342
     29744.35	0.13024	1681002.0	1268791.0	707088.0	0.281326	0.584665
     29744.86	0.12301	1585551.0	1196532.0	666727.0	0.281505	0.584802
     29745.36	0.13389	1750112.0	1321036.0	736275.0	0.281264	0.584568
     29745.87	0.11372	1471058.0	1110448.0	618998.0	0.281218	0.584417
     29746.38	0.13317	1707055.0	1288660.0	718532.0	0.281167	0.584148
     29746.89	0.13164	1702269.0	1285192.0	716802.0	0.281054	0.583864
     29747.40	0.14668	1901225.0	1435241.0	800612.0	0.281166	0.583712
     29747.91	0.14805	1920624.0	1449932.0	808651.0	0.281133	0.583905
     29748.42	0.14149	1835485.0	1385632.0	772763.0	0.281152	0.583939
     29748.93	0.13053	1707834.0	1289281.0	719070.0	0.281141	0.583881
     29749.44	0.10703	1409430.0	1064317.0	593814.0	0.280852	0.583522
     29749.95	0.12466	1617488.0	1221521.0	681798.0	0.280778	0.583119
     29750.45	0.13402	1750297.0	1321926.0	737993.0	0.280696	0.582911
     29750.96	0.13761	1798199.0	1358170.0	757896.0	0.280647	0.583347
     29751.47	0.12929	1702025.0	1285535.0	717643.0	0.280644	0.582958
     29751.98	0.20617	2701680.0	2039531.0	1138338.0	0.281154	0.583151
     29752.49	0.077508	1020485.0	770722.0	430233.0	0.280706	0.583001
     29753.00	0.092645	1203459.0	909227.0	507571.0	0.280360	0.582958
     29753.51	0.12110	1573731.0	1188788.0	663891.0	0.280515	0.582572
     29754.02	0.12426	1623210.0	1226217.0	684989.0	0.280472	0.582286
     29754.53	0.12355	1613727.0	1219060.0	681148.0	0.280466	0.582056
     29755.04	0.13824	1805658.0	1364204.0	761948.0	0.280354	0.582448
     29755.55	0.12424	1617790.0	1222202.0	682725.0	0.280407	0.582317
     29756.06	0.13783	1787695.0	1350683.0	754974.0	0.280317	0.581682
     29756.57	0.12128	1585892.0	1198043.0	669561.0	0.280458	0.581822
     29757.07	0.10868	1420700.0	1073574.0	600059.0	0.280156	0.581721
     29757.58	0.12199	1590537.0	1201877.0	671870.0	0.280187	0.581575
     29758.09	0.11981	1568179.0	1185136.0	662774.0	0.280058	0.581179
     29758.60	0.12350	1606162.0	1214019.0	678649.0	0.279911	0.581588
     29759.11	0.12391	1634031.0	1234613.0	689839.0	0.280292	0.582055
     29759.62	0.13035	1711974.0	1293658.0	723354.0	0.280173	0.581330
     29760.13	0.11342	1494668.0	1129762.0	631783.0	0.279897	0.581216
     29760.64	0.11785	1539022.0	1163207.0	650627.0	0.279966	0.581000
     29761.15	0.12266	1596739.0	1206973.0	675222.0	0.279848	0.580829
     29761.66	0.12617	1636479.0	1237157.0	691937.0	0.279731	0.581076
     29762.17	0.12988	1703606.0	1287690.0	720620.0	0.279897	0.580493
     29762.68	0.12407	1617277.0	1222518.0	684279.0	0.279831	0.580302
     29763.19	0.14386	1885111.0	1425059.0	797387.0	0.279773	0.580628
     29763.70	0.12855	1699382.0	1284935.0	719027.0	0.279557	0.580565
     29764.21	0.12529	1633288.0	1235221.0	691104.0	0.279345	0.580715
     29764.72	0.12620	1649124.0	1246916.0	698133.0	0.279571	0.580019
     29765.23	0.11509	1537068.0	1162039.0	650740.0	0.279700	0.579821
     29765.74	0.12748	1630811.0	1233183.0	690636.0	0.279479	0.579741
     29766.25	0.12478	1619815.0	1224801.0	685701.0	0.279534	0.580092
     29766.76	0.12264	1603031.0	1211898.0	678981.0	0.279708	0.579350
     29767.26	0.13645	1744836.0	1319379.0	738992.0	0.279499	0.579629
     29767.77	0.11765	1507653.0	1140359.0	638908.0	0.279211	0.579338
     29768.28	0.12412	1626053.0	1229908.0	688939.0	0.279216	0.579542
     29768.79	0.13050	1685781.0	1274813.0	714058.0	0.279429	0.579591
     29769.30	0.13039	1683807.0	1273552.0	713630.0	0.279247	0.579201
     29769.81	0.12874	1677152.0	1268419.0	710766.0	0.279326	0.579183
     29770.32	0.13106	1698079.0	1284347.0	719798.0	0.279247	0.579035
     29770.83	0.12410	1587636.0	1201146.0	673136.0	0.278970	0.579084
     29771.34	0.13197	1686040.0	1275321.0	714918.0	0.279185	0.578785
     29771.85	0.12329	1578612.0	1193903.0	669419.0	0.279318	0.578573
     29772.36	0.12875	1644810.0	1244250.0	697103.0	0.279092	0.579355
     29772.87	0.12465	1599248.0	1209708.0	678553.0	0.279155	0.578172
     29773.38	0.12524	1579601.0	1195371.0	670229.0	0.278716	0.578592
     29773.89	0.13029	1664411.0	1259474.0	706151.0	0.278777	0.578620
     29774.40	0.11758	1466820.0	1109862.0	622387.0	0.278861	0.578429
     29774.91	0.12295	1580514.0	1195890.0	670632.0	0.278859	0.578425
     29775.42	0.13042	1666153.0	1261070.0	707134.0	0.278557	0.578496
     29775.93	0.11700	1502213.0	1136415.0	637579.0	0.279061	0.577956
     29776.44	0.11449	1451599.0	1098693.0	616489.0	0.278544	0.577836
     29776.95	0.11577	1468364.0	1111194.0	623624.0	0.278714	0.577643
     29777.46	0.11522	1474468.0	1115746.0	625962.0	0.278774	0.577989
     29777.97	0.11826	1529545.0	1157646.0	649834.0	0.278582	0.577427
     29778.48	0.11866	1467539.0	1110784.0	623486.0	0.278521	0.577495
     29778.99	0.11393	1444571.0	1093473.0	613659.0	0.278454	0.577675
     29779.50	0.14045	1765003.0	1336121.0	750241.0	0.278382	0.577131
     29780.01	0.10798	1369150.0	1036584.0	581925.0	0.278259	0.577344
     29780.52	0.10366	1313084.0	994231.0	558099.0	0.278164	0.577433
     29781.03	0.12283	1561062.0	1181575.0	663521.0	0.278518	0.577043
     29781.54	0.12192	1525567.0	1155041.0	648685.0	0.278230	0.576944
     29782.05	0.13636	1720138.0	1302016.0	731174.0	0.278491	0.577018
     29782.56	0.13918	1769353.0	1339989.0	752410.0	0.277953	0.577135
     29783.07	0.12578	1590110.0	1203669.0	675892.0	0.278429	0.577096
     29783.58	0.13587	1737077.0	1315052.0	738483.0	0.278328	0.577033
     29784.09	0.11710	1482642.0	1122742.0	630532.0	0.278052	0.576965
     29784.60	0.13449	1657975.0	1254970.0	704895.0	0.278485	0.576818
     29785.12	0.11990	1518307.0	1149813.0	645675.0	0.277997	0.577058
     29785.63	0.13074	1643065.0	1244030.0	699100.0	0.278207	0.576318
     29786.14	0.13146	1680135.0	1272287.0	714891.0	0.278058	0.576441
     29786.65	0.13151	1644804.0	1245368.0	699873.0	0.278190	0.576287
     29787.16	0.12832	1654350.0	1252708.0	704088.0	0.278101	0.576160
     29787.67	0.13040	1611405.0	1220497.0	686092.0	0.277848	0.576002
     29788.18	0.13669	1734305.0	1313649.0	738469.0	0.277798	0.575985
     29788.69	0.12733	1633712.0	1237451.0	695113.0	0.277801	0.576734
     29789.20	0.14397	1799686.0	1363398.0	766273.0	0.277632	0.576197
     29789.71	0.13113	1656962.0	1255270.0	705562.0	0.277635	0.576111
     29790.22	0.13899	1730022.0	1310765.0	737088.0	0.277523	0.575659
     29790.73	0.12384	1554834.0	1177741.0	662344.0	0.277771	0.575568
     29791.24	0.12723	1592674.0	1206561.0	678628.0	0.277640	0.575456
     29791.75	0.13221	1653352.0	1252699.0	704551.0	0.277504	0.575495
     29792.26	0.12748	1608693.0	1218833.0	685467.0	0.277528	0.575549
     29792.77	0.12210	1529713.0	1159023.0	651989.0	0.277503	0.575305
     29793.28	0.12447	1581561.0	1198668.0	674291.0	0.277201	0.575304
     29793.79	0.13230	1665759.0	1262259.0	709873.0	0.277378	0.575572
     29794.30	0.12794	1581664.0	1198463.0	674322.0	0.277438	0.575087
     29794.81	0.12273	1547754.0	1173046.0	660315.0	0.277201	0.574642
     29795.32	0.12874	1611693.0	1221333.0	687319.0	0.277342	0.574900
     29795.84	0.12278	1539014.0	1166816.0	656584.0	0.276863	0.574983
     29796.35	0.12058	1596313.0	1209634.0	681009.0	0.277379	0.574498
     29796.86	0.12674	1587988.0	1203112.0	677464.0	0.277556	0.574310
     29797.37	0.11662	1469667.0	1113867.0	626868.0	0.277198	0.574857
     29797.88	0.12806	1587672.0	1203209.0	677427.0	0.277277	0.574446
     29798.39	0.11990	1511605.0	1145716.0	645158.0	0.277142	0.574290
     29798.90	0.12398	1555509.0	1179080.0	664158.0	0.277068	0.573970
     29799.41	0.12349	1519634.0	1151548.0	648896.0	0.277362	0.573590
     29799.92	0.10841	1345474.0	1019846.0	574392.0	0.277095	0.574095
     29800.43	0.12407	1572018.0	1191994.0	671372.0	0.276733	0.574059
     29800.94	0.12679	1584110.0	1200783.0	676309.0	0.277049	0.574079
     29801.45	0.12318	1542429.0	1169386.0	658648.0	0.276880	0.574045
     29801.97	0.13435	1689129.0	1280588.0	721639.0	0.276894	0.573550
     29802.48	0.12847	1640834.0	1243972.0	700763.0	0.276895	0.573895
     29802.99	0.12544	1590585.0	1206022.0	679587.0	0.276775	0.573597
     29803.50	0.12783	1567147.0	1188188.0	669813.0	0.276827	0.573186
     29804.01	0.12717	1576196.0	1195103.0	673636.0	0.276782	0.573298
     29804.52	0.13269	1666493.0	1263276.0	712282.0	0.277013	0.572990
     29805.03	0.11380	1437011.0	1089660.0	614257.0	0.276700	0.573208
     29805.54	0.12766	1572814.0	1192462.0	672308.0	0.276846	0.573059
     29806.05	0.12892	1606191.0	1218372.0	686847.0	0.276350	0.573159
     29806.56	0.12696	1579461.0	1197598.0	675424.0	0.276766	0.572733
     29807.07	0.12547	1554635.0	1179281.0	665199.0	0.276336	0.572574
     29807.59	0.21478	2646925.0	2007554.0	1132552.0	0.276482	0.572444
     29808.10	0.089566	1125951.0	853871.0	482002.0	0.276603	0.571832
     29808.61	0.095504	1177746.0	893150.0	504097.0	0.276603	0.571986
     29809.12	0.097179	1225702.0	929536.0	524393.0	0.276583	0.572444
     29809.63	0.13182	1676739.0	1271693.0	717971.0	0.276502	0.571675
     29810.14	0.15212	1896665.0	1438617.0	812127.0	0.276415	0.571781
     29810.65	0.14354	1811127.0	1373936.0	775596.0	0.276270	0.571803
     29811.16	0.097813	1235402.0	937180.0	529229.0	0.276276	0.571454
     29811.68	0.12954	1647621.0	1249899.0	705786.0	0.276270	0.571506
     29812.19	0.11789	1479972.0	1122616.0	634027.0	0.276361	0.571325
     29812.70	0.12362	1550238.0	1176055.0	664226.0	0.276243	0.571298
     29813.21	0.12975	1644938.0	1248007.0	704765.0	0.276155	0.571439
     29813.72	0.11972	1509480.0	1145168.0	647014.0	0.276214	0.570939
     29814.23	0.13861	1747882.0	1326169.0	749337.0	0.276110	0.570861
     29814.74	0.12808	1629565.0	1236312.0	698349.0	0.276180	0.571169
     29815.25	0.12628	1569330.0	1190865.0	673484.0	0.275969	0.569971
     29815.77	0.12999	1635744.0	1241513.0	701666.0	0.275767	0.570629
     29816.28	0.098075	1222430.0	927839.0	524456.0	0.275738	0.570497
     29816.79	0.11187	1384268.0	1050692.0	593848.0	0.275722	0.570581
     29817.30	0.11526	1431342.0	1086295.0	613992.0	0.275840	0.570546
     29817.81	0.11726	1494436.0	1134189.0	641443.0	0.275831	0.569953
     29818.32	0.12720	1606976.0	1219703.0	689593.0	0.275747	0.570261
     29818.83	0.11484	1431449.0	1086219.0	614487.0	0.275984	0.569670
     29819.35	0.12602	1580151.0	1199717.0	678549.0	0.275435	0.569884
     29819.86	0.12339	1564104.0	1187207.0	671698.0	0.275710	0.569550
     29820.37	0.088589	1103374.0	837672.0	473938.0	0.275501	0.569550
     29820.88	0.12798	1597308.0	1212479.0	686014.0	0.275653	0.569524
     29821.39	0.12040	1517528.0	1151976.0	652142.0	0.275604	0.568972
     29821.90	0.12687	1606105.0	1219220.0	690072.0	0.275601	0.569171
     29822.42	0.15386	1900077.0	1442281.0	816366.0	0.275669	0.569118
     29822.93	0.13614	1743811.0	1323778.0	749668.0	0.275583	0.568615
     29823.44	0.15664	1968218.0	1494103.0	845743.0	0.275603	0.569066
     29823.95	0.10326	1292806.0	981659.0	555876.0	0.275326	0.568699
     29824.46	0.10922	1368975.0	1039207.0	588563.0	0.275604	0.568529
     29824.97	0.12395	1561670.0	1185858.0	671933.0	0.275289	0.568063
     29825.49	0.13554	1686464.0	1280793.0	725776.0	0.275155	0.567993
     29826.00	0.12476	1539396.0	1168663.0	661973.0	0.275530	0.568391
     29826.51	0.13953	1722320.0	1307992.0	741005.0	0.275179	0.568241
     29827.02	0.11904	1489001.0	1130970.0	641048.0	0.275030	0.567727
     29827.53	0.15351	1897974.0	1441864.0	817058.0	0.274850	0.567982
     29828.04	0.11261	1413118.0	1073107.0	608321.0	0.275240	0.567611
     29828.56	0.13077	1663919.0	1263577.0	716364.0	0.275229	0.567513
     29829.07	0.13201	1625708.0	1234565.0	699677.0	0.275225	0.567855
     29829.58	0.13399	1671868.0	1270057.0	719906.0	0.274880	0.567696
     29830.09	0.14189	1758175.0	1335714.0	757593.0	0.274810	0.567075
     29830.60	0.13173	1653950.0	1256497.0	712746.0	0.274839	0.566958
     29831.11	0.13972	1733041.0	1316412.0	746926.0	0.274968	0.566699
     29831.63	0.13501	1668060.0	1267211.0	719153.0	0.274843	0.566500
     29832.14	0.12363	1506147.0	1144220.0	649068.0	0.274832	0.566941
     29832.65	0.11770	1464274.0	1112485.0	631297.0	0.274763	0.566575
     29833.16	0.12600	1549717.0	1177325.0	668150.0	0.274827	0.566487
     29833.67	0.13249	1630300.0	1238714.0	703122.0	0.274690	0.566299
     29834.19	0.12381	1501805.0	1141004.0	647912.0	0.274759	0.565909
     29834.70	0.12270	1508101.0	1146200.0	650844.0	0.274399	0.565937
     29835.21	0.12495	1544590.0	1173753.0	666231.0	0.274552	0.566325
     29835.72	0.12900	1605066.0	1219677.0	692641.0	0.274579	0.565830
     29836.23	0.11728	1463574.0	1112286.0	631883.0	0.274464	0.565468
     29836.75	0.12148	1509253.0	1147017.0	651569.0	0.274450	0.565537
     29837.26	0.12205	1497362.0	1137939.0	646276.0	0.274486	0.565747
     29837.77	0.12977	1618459.0	1229972.0	699095.0	0.274483	0.564960
     29838.28	0.12615	1560480.0	1185635.0	673668.0	0.274715	0.565296
     29838.80	0.11438	1427243.0	1085160.0	616461.0	0.274017	0.565488
     29839.31	0.12442	1531564.0	1163997.0	661434.0	0.274430	0.565205
     29839.82	0.12817	1590514.0	1208676.0	687275.0	0.274532	0.564546
     29840.33	0.10723	1355851.0	1030626.0	586084.0	0.274263	0.564459
     29840.84	0.12779	1617660.0	1229410.0	699133.0	0.274446	0.564449
     29841.36	0.12575	1589543.0	1208682.0	687566.0	0.273916	0.564128
     29841.87	0.12240	1552678.0	1180557.0	671285.0	0.273995	0.564548
     29842.38	0.11990	1503450.0	1143140.0	650072.0	0.273984	0.564451
     29842.89	0.14752	1813530.0	1378754.0	784042.0	0.274095	0.564473
     29843.41	0.11883	1452771.0	1104680.0	628806.0	0.273917	0.563488
     29843.92	0.12578	1562541.0	1187866.0	675821.0	0.274155	0.563985
     29844.43	0.12489	1532563.0	1165607.0	663458.0	0.273700	0.563532
     29844.94	0.13092	1633735.0	1242165.0	707328.0	0.274013	0.563117
     29845.46	0.12655	1547479.0	1176743.0	669862.0	0.273877	0.563434
     29845.97	0.12201	1507767.0	1146822.0	652502.0	0.273635	0.563936
     29846.48	0.12555	1548289.0	1177331.0	670283.0	0.273900	0.563305
     29846.99	0.12102	1495073.0	1136953.0	647485.0	0.273823	0.563012
     29847.50	0.12892	1598052.0	1215447.0	692234.0	0.273673	0.562943
     29848.02	0.13462	1671689.0	1271321.0	724041.0	0.273778	0.562964
     29848.53	0.11159	1380881.0	1050386.0	598186.0	0.273564	0.563011
     29849.04	0.13389	1656542.0	1260115.0	717756.0	0.273529	0.562829
     29849.56	0.13102	1652010.0	1256905.0	715843.0	0.273340	0.562947
     29850.07	0.12568	1563220.0	1189182.0	677602.0	0.273482	0.562461
     29850.58	0.12571	1544567.0	1175060.0	669748.0	0.273424	0.562173
     29851.09	0.13187	1616296.0	1229471.0	700526.0	0.273553	0.562508
     29851.61	0.13538	1673483.0	1273311.0	725763.0	0.273286	0.562152
     29852.12	0.12840	1582088.0	1204110.0	686271.0	0.273005	0.562223
     29852.63	0.12448	1509441.0	1148813.0	655091.0	0.273010	0.561710
     29853.14	0.12678	1544684.0	1175373.0	670208.0	0.273234	0.561753
     29853.66	0.12538	1527924.0	1162709.0	663038.0	0.273157	0.561676
     29854.17	0.12783	1565023.0	1190419.0	678721.0	0.273595	0.561850
     29854.68	0.12322	1513059.0	1151144.0	656649.0	0.273377	0.561362
     29855.19	0.13107	1576635.0	1199479.0	684339.0	0.273406	0.561189
     29855.71	0.12399	1522896.0	1159271.0	661369.0	0.272822	0.561235
     29856.22	0.10754	1331737.0	1013493.0	578381.0	0.273081	0.560925
     29856.73	0.13049	1593978.0	1213283.0	692218.0	0.272903	0.561184
     29857.25	0.10826	1322972.0	1007095.0	574540.0	0.272811	0.561256
     29857.76	0.12400	1509402.0	1149070.0	655819.0	0.272761	0.560823
     29858.27	0.10825	1349545.0	1027255.0	586617.0	0.272877	0.560273
     29858.78	0.11844	1455359.0	1108066.0	632691.0	0.272636	0.560389
     29859.30	0.11706	1425250.0	1084961.0	619499.0	0.272803	0.560388
     29859.81	0.13670	1681789.0	1280456.0	731139.0	0.272642	0.560368
     29860.32	0.10812	1309554.0	997269.0	569585.0	0.272421	0.560113
     29860.84	0.10146	1243835.0	946721.0	541109.0	0.272950	0.559384
     29861.35	0.12805	1589025.0	1209991.0	691139.0	0.272508	0.560027
     29861.86	0.13164	1618669.0	1232420.0	704150.0	0.272624	0.559744
     29862.37	0.11914	1471883.0	1120630.0	640404.0	0.272652	0.559547
     29862.89	0.12777	1604084.0	1221576.0	698033.0	0.272411	0.559631
     29863.40	0.12651	1565589.0	1192046.0	681432.0	0.272591	0.559230
     29863.91	0.14373	1764075.0	1343235.0	767680.0	0.272546	0.559463
     29864.43	0.12058	1509144.0	1149560.0	657238.0	0.272163	0.559088
     29864.94	0.13251	1607010.0	1223787.0	699790.0	0.272425	0.558925
     29865.45	0.12018	1474985.0	1123534.0	642403.0	0.272169	0.559019
     29865.97	0.13271	1662928.0	1266275.0	724326.0	0.272500	0.558593
     29866.48	0.12857	1582533.0	1205466.0	689449.0	0.272161	0.558729
     29866.99	0.13117	1617043.0	1231759.0	704676.0	0.272156	0.558460
     29867.50	0.13243	1669747.0	1271767.0	727359.0	0.272265	0.558742
     29868.02	0.11752	1459084.0	1111372.0	635794.0	0.272214	0.558476
     29868.53	0.14605	1792240.0	1365333.0	781270.0	0.272068	0.558233
     29869.04	0.12375	1523486.0	1160425.0	663704.0	0.272215	0.558705
     29869.56	0.13441	1644302.0	1252720.0	716985.0	0.271999	0.558018
     29870.07	0.12888	1591379.0	1212317.0	693880.0	0.272068	0.557990
     29870.58	0.13877	1708747.0	1302017.0	745351.0	0.271846	0.557815
     29871.10	0.12971	1636040.0	1246660.0	713693.0	0.271811	0.557770
     29871.61	0.14191	1780332.0	1356465.0	776389.0	0.271918	0.557984
     29872.12	0.13085	1611775.0	1228142.0	703220.0	0.271834	0.557588
     29872.64	0.13614	1638380.0	1248635.0	715047.0	0.271657	0.557458
     29873.15	0.12050	1508346.0	1149065.0	658009.0	0.272065	0.557485
     29873.66	0.12337	1551518.0	1182339.0	677074.0	0.271739	0.557469
     29874.18	0.13628	1680265.0	1280445.0	733626.0	0.271744	0.556964
     29874.69	0.12515	1508891.0	1149931.0	658639.0	0.271673	0.557282
     29875.20	0.11687	1428690.0	1088640.0	623926.0	0.271829	0.556653
     29875.72	0.13176	1670318.0	1273129.0	729724.0	0.271536	0.556567
     29876.23	0.12938	1607696.0	1225203.0	701889.0	0.271696	0.557087
     29876.74	0.12372	1547762.0	1179823.0	676256.0	0.271446	0.556548
     29877.26	0.11731	1455610.0	1109740.0	636079.0	0.271299	0.556558
     29877.77	0.12582	1572312.0	1198427.0	686846.0	0.271537	0.556655
     29878.29	0.13134	1639963.0	1250226.0	716836.0	0.271349	0.556233
     29878.80	0.12289	1555948.0	1186207.0	679963.0	0.271324	0.556478
     29879.31	0.11666	1431839.0	1091600.0	626271.0	0.271315	0.555617
     29879.83	0.12720	1552915.0	1183689.0	678977.0	0.271498	0.555804
     29880.34	0.12323	1515171.0	1155278.0	662489.0	0.271187	0.556092
     29880.85	0.12018	1469594.0	1120357.0	642827.0	0.271339	0.555527
     29881.37	0.11965	1431376.0	1091184.0	626130.0	0.271373	0.555461
     29881.88	0.11906	1453739.0	1108445.0	635778.0	0.271181	0.555864
     29882.39	0.11530	1445112.0	1101837.0	632268.0	0.271208	0.555421
     29882.91	0.13000	1636593.0	1247727.0	716034.0	0.271293	0.555351
     29883.42	0.11993	1510775.0	1151893.0	660875.0	0.271216	0.555597
     29883.94	0.12491	1580844.0	1205360.0	691875.0	0.271181	0.555128
     29884.45	0.13206	1660084.0	1266181.0	726724.0	0.270863	0.555214
     29884.96	0.14204	1796941.0	1370353.0	786663.0	0.271017	0.555024
     29885.48	0.12687	1566966.0	1194949.0	686270.0	0.271038	0.554588
     29885.99	0.11645	1442745.0	1100389.0	631863.0	0.270884	0.554746
     29886.50	0.12708	1567115.0	1195208.0	686348.0	0.270916	0.554691
     29887.02	0.12327	1517205.0	1157125.0	664761.0	0.270931	0.554266
     29887.53	0.11680	1456934.0	1111290.0	638423.0	0.270813	0.554276
     29888.05	0.14216	1755795.0	1339538.0	769392.0	0.270597	0.554479
     29888.56	0.12252	1476088.0	1125931.0	647175.0	0.270785	0.553749
     29889.07	0.11999	1457275.0	1111448.0	638987.0	0.270905	0.553535
     29889.59	0.13287	1632850.0	1245671.0	715682.0	0.270653	0.554194
     29890.10	0.12243	1488379.0	1135540.0	652844.0	0.270579	0.553525
     29890.62	0.13290	1610216.0	1228660.0	706293.0	0.270444	0.553649
     29891.13	0.11819	1428989.0	1089888.0	626555.0	0.270892	0.553594
     29891.64	0.12751	1558406.0	1188961.0	683795.0	0.270584	0.553177
     29892.16	0.13877	1689172.0	1288598.0	741241.0	0.270684	0.552984
     29892.67	0.12975	1587216.0	1211223.0	696821.0	0.270351	0.552857
     29893.19	0.14072	1657502.0	1264407.0	727049.0	0.270708	0.553365
     29893.70	0.11592	1399043.0	1067368.0	613799.0	0.270593	0.553284
     29894.21	0.13160	1602937.0	1223439.0	703598.0	0.270172	0.553214
     29894.73	0.11823	1453731.0	1109189.0	638438.0	0.270504	0.552360
     29895.24	0.11978	1477386.0	1127585.0	648748.0	0.270196	0.552789
     29895.76	0.12461	1501387.0	1146017.0	659535.0	0.270097	0.552513
     29896.27	0.12719	1539338.0	1175182.0	676173.0	0.269929	0.552729
     29896.78	0.12798	1538807.0	1174651.0	675712.0	0.270036	0.552959
     29897.30	0.14742	1812767.0	1383598.0	796484.0	0.270167	0.552236
     29897.81	0.10605	1326483.0	1012255.0	582434.0	0.270351	0.552720
     29898.33	0.11226	1385851.0	1057735.0	608923.0	0.270185	0.552193
     29898.84	0.11966	1457628.0	1112661.0	640449.0	0.270056	0.552340
     29899.36	0.12239	1505357.0	1149158.0	661735.0	0.270001	0.551920
     29899.87	0.10898	1331403.0	1016084.0	585212.0	0.270277	0.551737
     29900.38	0.12001	1508991.0	1151815.0	663646.0	0.270102	0.551345
     29900.90	0.11810	1426592.0	1089108.0	627352.0	0.269929	0.551607
     29901.41	0.13318	1567856.0	1197028.0	689525.0	0.269867	0.551594
     29901.93	0.13239	1603331.0	1223916.0	705047.0	0.270028	0.551546
     29902.44	0.081988	1012585.0	773276.0	445200.0	0.269626	0.552112
     29902.96	0.11326	1383923.0	1056595.0	608575.0	0.269871	0.551687
     29903.47	0.13011	1603362.0	1224316.0	705641.0	0.269720	0.551031
     29903.98	0.12384	1531571.0	1169456.0	674073.0	0.269755	0.550956
     29904.50	0.12795	1554393.0	1187270.0	684438.0	0.269429	0.550814
     29905.01	0.12054	1457116.0	1112788.0	641446.0	0.269591	0.550899
     29905.53	0.13971	1697913.0	1296225.0	747457.0	0.269944	0.550535
     29906.04	0.13362	1623861.0	1240195.0	714887.0	0.269538	0.550899
     29906.56	0.12201	1475417.0	1126603.0	649767.0	0.269734	0.550348
     29907.07	0.13252	1587251.0	1212280.0	699171.0	0.269501	0.550363
     29907.59	0.12562	1506478.0	1150544.0	663345.0	0.269540	0.550695
     29908.10	0.11802	1448315.0	1106343.0	638023.0	0.269341	0.550441
     29908.62	0.14243	1734774.0	1324964.0	764322.0	0.269492	0.550151
     29909.13	0.12910	1548682.0	1183107.0	682569.0	0.269260	0.550036
     29909.64	0.19029	2292347.0	1751056.0	1010187.0	0.269357	0.550084
     29910.16	0.086092	1036901.0	792183.0	457404.0	0.269199	0.549225
     29910.67	0.10549	1266387.0	967211.0	558042.0	0.269507	0.549982
     29911.19	0.13604	1614396.0	1233389.0	711756.0	0.269195	0.549786
     29911.70	0.12748	1555006.0	1188453.0	685668.0	0.268827	0.550014
     29912.22	0.14299	1720074.0	1314624.0	758636.0	0.268817	0.549784
     29912.73	0.13893	1699941.0	1299092.0	749575.0	0.268928	0.549914
     29913.25	0.13625	1654452.0	1264122.0	729719.0	0.269092	0.549474
     29913.76	0.13052	1579047.0	1206945.0	696698.0	0.268729	0.549496
     29914.28	0.14258	1745045.0	1333543.0	769901.0	0.268941	0.549333
     29914.79	0.12402	1494358.0	1142399.0	659554.0	0.268566	0.549322
     29915.31	0.12656	1502471.0	1148117.0	662991.0	0.268988	0.549117
     29915.82	0.12032	1435627.0	1097400.0	633810.0	0.268658	0.548950
     29916.34	0.12844	1546803.0	1182473.0	682946.0	0.268582	0.548947
     29916.85	0.14138	1695889.0	1296292.0	748759.0	0.268699	0.548846
     29917.37	0.10751	1310717.0	1002189.0	578748.0	0.268388	0.549075
     29917.88	0.12857	1570577.0	1200272.0	693802.0	0.268895	0.548117
     29918.40	0.13218	1572271.0	1201900.0	694593.0	0.268617	0.548333
     29918.91	0.11781	1429122.0	1092672.0	631423.0	0.268434	0.548405
     29919.43	0.12324	1524613.0	1165395.0	673408.0	0.268681	0.548464
     29919.94	0.12564	1527448.0	1167715.0	675082.0	0.268550	0.547970
     29920.46	0.12035	1439648.0	1100901.0	636721.0	0.268270	0.547553
     29920.97	0.13499	1642114.0	1255213.0	725715.0	0.268679	0.547903
     29921.49	0.11436	1370738.0	1047883.0	605844.0	0.268577	0.547905
     29922.00	0.12132	1464350.0	1119892.0	647521.0	0.268179	0.547836
     29922.52	0.11929	1396975.0	1068078.0	617639.0	0.268448	0.547712
     29923.03	0.12600	1499215.0	1146476.0	662937.0	0.268249	0.547768
     29923.55	0.11779	1438326.0	1099881.0	636254.0	0.268278	0.547359
     29924.06	0.11464	1341902.0	1026080.0	593817.0	0.268342	0.546930
     29924.58	0.12374	1494294.0	1142743.0	660990.0	0.268222	0.547448
     29925.09	0.13081	1543866.0	1180735.0	683231.0	0.268153	0.547059
     29925.61	0.12781	1505244.0	1150935.0	665945.0	0.268380	0.547123
     29926.12	0.12113	1458006.0	1115420.0	645570.0	0.267839	0.546853
     29926.64	0.13303	1583452.0	1211256.0	701150.0	0.267949	0.546691
     29927.15	0.12438	1501902.0	1148913.0	664902.0	0.267916	0.546932
     29927.67	0.12842	1487609.0	1137803.0	658909.0	0.268071	0.546269
     29928.18	0.12416	1482741.0	1134434.0	656784.0	0.267759	0.546534
     29928.70	0.12421	1475898.0	1129176.0	653937.0	0.267778	0.546232
     29929.21	0.12161	1466203.0	1121516.0	649419.0	0.267995	0.546359
     29929.73	0.13546	1651815.0	1263871.0	731881.0	0.267695	0.546317
     29930.24	0.11290	1369316.0	1047555.0	606979.0	0.267852	0.545720
     29930.76	0.11502	1377133.0	1053674.0	610377.0	0.267721	0.545962
     29931.27	0.13264	1596304.0	1221372.0	708101.0	0.267716	0.545143
     29931.79	0.12361	1465359.0	1121183.0	649562.0	0.267716	0.545841
     29932.31	0.13753	1663067.0	1272366.0	737559.0	0.267785	0.545287
     29932.82	0.11930	1418841.0	1085910.0	629500.0	0.267422	0.545248
     29933.34	0.13017	1541516.0	1179482.0	683596.0	0.267691	0.545464
     29933.85	0.13099	1579822.0	1209144.0	701063.0	0.267400	0.545070
     29934.37	0.12862	1531342.0	1172113.0	679352.0	0.267336	0.545424
     29934.88	0.13006	1553880.0	1189146.0	689676.0	0.267520	0.544769
     29935.40	0.12261	1436734.0	1099313.0	637423.0	0.267687	0.545007
     29935.91	0.12918	1548127.0	1185120.0	687357.0	0.267202	0.544746
     29936.43	0.11952	1397545.0	1069828.0	620417.0	0.267219	0.544861
     29936.94	0.13845	1667201.0	1276088.0	739977.0	0.267347	0.544935
     29937.46	0.12626	1491843.0	1141669.0	662117.0	0.267521	0.544804
     29937.98	0.12177	1436838.0	1100155.0	638161.0	0.266994	0.544616
     29938.49	0.12288	1426237.0	1091954.0	633453.0	0.267071	0.544538
     29939.01	0.12412	1471104.0	1126024.0	653280.0	0.267320	0.544442
     29939.52	0.12279	1464822.0	1121746.0	651336.0	0.266847	0.543616
     29940.04	0.12214	1486299.0	1138179.0	660722.0	0.266860	0.543852
     29940.55	0.12276	1481542.0	1134363.0	658603.0	0.267012	0.543706
     29941.07	0.11920	1396476.0	1069056.0	620768.0	0.267176	0.543574
     29941.59	0.11245	1338063.0	1024787.0	594899.0	0.266738	0.543848
     29942.10	0.12126	1442603.0	1104657.0	641249.0	0.266914	0.543872
     29942.62	0.10628	1254591.0	960444.0	557704.0	0.267169	0.543567
     29943.13	0.11831	1388504.0	1062987.0	617184.0	0.267144	0.543671
     29943.65	0.10630	1273413.0	975229.0	566409.0	0.266784	0.543356
     29944.16	0.13361	1589999.0	1217667.0	707420.0	0.266797	0.543067
     29944.68	0.10954	1321560.0	1012266.0	588120.0	0.266621	0.543016
     29945.20	0.11904	1424114.0	1090777.0	633914.0	0.266660	0.542732
     29945.71	0.12508	1492163.0	1143127.0	664205.0	0.266459	0.542932
     29946.23	0.12203	1443436.0	1105760.0	642707.0	0.266494	0.542599
     29946.74	0.12821	1547208.0	1184859.0	688559.0	0.266828	0.542778
     29947.26	0.12967	1558371.0	1193606.0	694178.0	0.266662	0.542006
     29947.78	0.13576	1630575.0	1249248.0	725927.0	0.266391	0.542848
     29948.29	0.13440	1619580.0	1240869.0	721749.0	0.266355	0.541890
     29948.81	0.12438	1477130.0	1131712.0	657821.0	0.266369	0.542554
     29949.32	0.12961	1553014.0	1189661.0	691542.0	0.266529	0.542500
     29949.84	0.12939	1555458.0	1191552.0	692749.0	0.266513	0.542344
     29950.36	0.13379	1581925.0	1212007.0	704673.0	0.266365	0.542299
     29950.87	0.12620	1507171.0	1154872.0	671778.0	0.266245	0.541817
     29951.39	0.13224	1600010.0	1226040.0	713214.0	0.266220	0.541763
     29951.90	0.12287	1470358.0	1126634.0	655763.0	0.266271	0.541190
     29952.42	0.12746	1512997.0	1159310.0	674566.0	0.266267	0.541511
     29952.94	0.13497	1608000.0	1232618.0	717294.0	0.265851	0.541410
     29953.45	0.13084	1558371.0	1194023.0	695055.0	0.266313	0.541093
     29953.97	0.13086	1593924.0	1221598.0	710803.0	0.266039	0.541520
     29954.48	0.14131	1703083.0	1304856.0	759859.0	0.266347	0.540715
     29955.00	0.13367	1596805.0	1223343.0	712325.0	0.266417	0.540808
     29955.52	0.13139	1595239.0	1222829.0	711795.0	0.265857	0.541132
     29956.03	0.12548	1497321.0	1147759.0	668366.0	0.265866	0.540731
     29956.55	0.13923	1678618.0	1286469.0	749107.0	0.266070	0.540775
     29957.07	0.11771	1433913.0	1099262.0	640108.0	0.265768	0.540757
     29957.58	0.12960	1542697.0	1182658.0	688779.0	0.265768	0.540599
     29958.10	0.12566	1510800.0	1158162.0	674668.0	0.265805	0.540369
     29958.61	0.12980	1548643.0	1187462.0	691961.0	0.265561	0.540044
     29959.13	0.12616	1519439.0	1164863.0	678652.0	0.265738	0.540250
     29959.65	0.13082	1551511.0	1189340.0	693447.0	0.265831	0.539479
     29960.16	0.11895	1401241.0	1074689.0	626239.0	0.265327	0.540055
     29960.68	0.11589	1387689.0	1063945.0	620033.0	0.265656	0.539966
     29961.20	0.13163	1532800.0	1175647.0	685292.0	0.265277	0.539729
     29961.71	0.13713	1605676.0	1231474.0	717904.0	0.265333	0.539631
     29962.23	0.11839	1411096.0	1082402.0	630806.0	0.265184	0.539940
     29962.75	0.12209	1440961.0	1104823.0	644254.0	0.265625	0.539347
     29963.26	0.12624	1513742.0	1160860.0	676983.0	0.265424	0.539270
     29963.78	0.12012	1428406.0	1095429.0	638887.0	0.265413	0.539174
     29964.30	0.11738	1389551.0	1065813.0	621628.0	0.265243	0.539151
     29964.81	0.11475	1388463.0	1064642.0	620802.0	0.265559	0.539382
     29965.33	0.13054	1553832.0	1192046.0	695243.0	0.265053	0.539165
     29965.84	0.12789	1508118.0	1157120.0	675069.0	0.264928	0.538875
     29966.36	0.10906	1299364.0	997067.0	581691.0	0.264812	0.538879
     29966.88	0.12901	1512526.0	1160222.0	676993.0	0.265170	0.538706
     29967.39	0.13758	1646434.0	1262955.0	737225.0	0.265158	0.538316
     29967.91	0.12743	1485411.0	1139537.0	665108.0	0.265069	0.538428
     29968.43	0.12251	1470096.0	1127800.0	658239.0	0.265059	0.538456
     29968.94	0.12056	1435497.0	1101445.0	642997.0	0.264888	0.538238
     29969.46	0.12514	1474229.0	1131165.0	660356.0	0.264887	0.538224
     29969.98	0.14441	1708122.0	1310395.0	765278.0	0.265066	0.537845
     29970.49	0.12081	1460539.0	1120661.0	654240.0	0.264887	0.538200
     29971.01	0.11268	1317118.0	1010716.0	590195.0	0.264787	0.537961
     29971.53	0.13570	1619195.0	1242459.0	725791.0	0.264837	0.537586
     29972.04	0.14333	1709496.0	1311891.0	766420.0	0.264729	0.537495
     29972.56	0.095075	1088671.0	835503.0	488110.0	0.264679	0.537493
     29973.08	0.12457	1482395.0	1137577.0	664592.0	0.264758	0.537483
     29973.60	0.12702	1497606.0	1149373.0	671707.0	0.264651	0.537150
     29974.11	0.12518	1460904.0	1121474.0	655328.0	0.264412	0.537263
     29974.63	0.13282	1605627.0	1232428.0	720195.0	0.264528	0.537219
     29975.15	0.13424	1593958.0	1223753.0	715300.0	0.264298	0.536976
     29975.66	0.12762	1529163.0	1173853.0	686347.0	0.264429	0.536663
     29976.18	0.17100	2034734.0	1562181.0	913177.0	0.264282	0.536908
     29976.70	0.089325	1102110.0	845999.0	494833.0	0.264464	0.536298
     29977.21	0.12083	1500315.0	1151642.0	673151.0	0.264486	0.536974
     29977.73	0.12342	1502580.0	1153755.0	674563.0	0.264162	0.536712
     29978.25	0.13730	1647329.0	1264727.0	739286.0	0.264299	0.536927
     29978.76	0.12080	1461174.0	1121838.0	655887.0	0.264272	0.536735
     29979.28	0.13577	1656161.0	1271496.0	743684.0	0.264308	0.536333
     29979.80	0.12123	1457364.0	1119027.0	654720.0	0.264170	0.536007
     29980.32	0.18995	2297129.0	1763852.0	1031735.0	0.264160	0.536258
     29980.83	0.093673	1124453.0	863389.0	505151.0	0.264187	0.536008
     29981.35	0.10498	1247957.0	958052.0	560691.0	0.264361	0.535732
     29981.87	0.10252	1230065.0	944700.0	552984.0	0.263955	0.535538
     29982.38	0.12130	1444545.0	1109088.0	649465.0	0.264256	0.535144
     29982.90	0.11809	1424768.0	1094288.0	640553.0	0.263905	0.535527
     29983.42	0.13352	1602379.0	1230312.0	720214.0	0.264222	0.535475
     29983.94	0.11299	1364323.0	1047351.0	613176.0	0.264394	0.535367
     29984.45	0.14910	1767171.0	1357495.0	794812.0	0.263739	0.535291
     29984.97	0.10221	1258994.0	966720.0	565981.0	0.264159	0.535348
     29985.49	0.089510	1104732.0	849073.0	497077.0	0.263213	0.535400
     29986.00	0.11451	1392555.0	1069400.0	626295.0	0.264042	0.535032
     29986.52	0.11696	1376288.0	1056914.0	619131.0	0.264037	0.534792
     29987.04	0.12286	1485589.0	1141218.0	668352.0	0.263715	0.535036
     29987.56	0.12146	1482418.0	1139046.0	667330.0	0.263483	0.534662
     29988.07	0.14776	1762155.0	1354138.0	793287.0	0.263372	0.534735
     29988.59	0.18249	2206665.0	1695080.0	993124.0	0.263752	0.534630
     29989.11	0.084842	1012852.0	778114.0	456110.0	0.263652	0.534139
     29989.63	0.11091	1265499.0	972710.0	570286.0	0.263136	0.533948
     29990.14	0.11772	1395406.0	1072360.0	628413.0	0.263324	0.534420
     29990.66	0.12477	1502629.0	1154614.0	676628.0	0.263450	0.534400
     29991.18	0.13168	1561258.0	1199960.0	703307.0	0.263204	0.534250
     29991.70	0.13218	1580569.0	1214668.0	712114.0	0.263314	0.533988
     29992.21	0.12546	1508641.0	1159008.0	679377.0	0.263645	0.534144
     29992.73	0.21221	2500660.0	1921780.0	1126632.0	0.263303	0.534019
     29993.25	0.098485	1164760.0	895337.0	524915.0	0.263070	0.533964
     29993.77	0.089228	1061962.0	816210.0	478784.0	0.263202	0.533422
     29994.28	0.11494	1359383.0	1044844.0	612579.0	0.263163	0.533945
     29994.80	0.12911	1524401.0	1171440.0	687034.0	0.263368	0.533605
     29995.32	0.13916	1638392.0	1259499.0	738794.0	0.263001	0.533450
     29995.84	0.13067	1562201.0	1201107.0	704000.0	0.262852	0.534221
     29996.35	0.16639	1991130.0	1530744.0	898009.0	0.262948	0.533329
     29996.87	0.17777	2100796.0	1614692.0	947428.0	0.263172	0.533149
     29997.39	0.074737	912077.0	701204.0	411360.0	0.262926	0.533330
     29997.91	0.10953	1311324.0	1007886.0	591798.0	0.263182	0.532445
     29998.42	0.13669	1613918.0	1240953.0	728375.0	0.262785	0.532819
     29998.94	0.12696	1531244.0	1177407.0	691182.0	0.262766	0.532667
     29999.46	0.12724	1534283.0	1179710.0	692528.0	0.262795	0.532675
     29999.98	0.12687	1527469.0	1174533.0	689784.0	0.262741	0.532247
     30000.50	0.12654	1491455.0	1146581.0	673685.0	0.262968	0.531777
     30001.01	0.12587	1523744.0	1171517.0	687909.0	0.262871	0.532398
     30001.53	0.12550	1499448.0	1152485.0	676738.0	0.263177	0.532392
     30002.05	0.12488	1501634.0	1154977.0	678251.0	0.262473	0.532318
     30002.57	0.12608	1510223.0	1161292.0	682302.0	0.262724	0.531816
     30003.08	0.12571	1520880.0	1169571.0	687389.0	0.262652	0.531492
     30003.60	0.13436	1607086.0	1235829.0	725905.0	0.262681	0.532078
     30004.12	0.11930	1417735.0	1090590.0	640786.0	0.262342	0.531779
     30004.64	0.11424	1377986.0	1060029.0	622915.0	0.262327	0.531641
     30005.16	0.12587	1497617.0	1151748.0	676764.0	0.262594	0.531713
     30005.67	0.11694	1419769.0	1092209.0	641489.0	0.262292	0.532165
     30006.19	0.11228	1370829.0	1054422.0	619733.0	0.262423	0.531459
     30006.71	0.12404	1486146.0	1143207.0	671840.0	0.262349	0.531573
     30007.23	0.12673	1532119.0	1178594.0	692847.0	0.262330	0.531268
     30007.75	0.12212	1449052.0	1114731.0	655295.0	0.262296	0.531283
     30008.26	0.12900	1535493.0	1181190.0	694479.0	0.262329	0.531116
     30008.78	0.11981	1424285.0	1095698.0	644419.0	0.262278	0.530798
     30009.30	0.13065	1551904.0	1193625.0	701927.0	0.262488	0.530921
     30009.82	0.12572	1536602.0	1181965.0	695267.0	0.262395	0.530638
     30010.34	0.14364	1703514.0	1310971.0	771109.0	0.261925	0.530694
     30010.86	0.12089	1426936.0	1097835.0	645759.0	0.262189	0.530669
     30011.37	0.13190	1538532.0	1184060.0	696107.0	0.261880	0.531201
     30011.89	0.12346	1472801.0	1133220.0	666532.0	0.262103	0.530730
     30012.41	0.11787	1374553.0	1057771.0	622488.0	0.261965	0.530195
     30012.93	0.12391	1438540.0	1106994.0	651346.0	0.261980	0.530363
     30013.45	0.12703	1461831.0	1124918.0	661833.0	0.261980	0.530452
     30013.96	0.11868	1384666.0	1065341.0	626952.0	0.262164	0.530180
     30014.48	0.12981	1555195.0	1197054.0	704607.0	0.261737	0.529979
     30015.00	0.12650	1465631.0	1127890.0	663851.0	0.261937	0.530046
     30015.52	0.13789	1624886.0	1250513.0	736464.0	0.261884	0.529449
     30016.04	0.12248	1460777.0	1124214.0	661893.0	0.261884	0.529735
     30016.56	0.13253	1595802.0	1228402.0	723366.0	0.261662	0.529554
     30017.07	0.13039	1557031.0	1198463.0	705491.0	0.261741	0.529901
     30017.59	0.12315	1430157.0	1100993.0	648275.0	0.261572	0.529653
     30018.11	0.13101	1526516.0	1175415.0	692342.0	0.261367	0.529297
     30018.63	0.12634	1475449.0	1135984.0	669279.0	0.261463	0.529054
     30019.15	0.13078	1541661.0	1186826.0	699020.0	0.261578	0.529358
     30019.67	0.12200	1399132.0	1077057.0	634742.0	0.261620	0.528769
     30020.18	0.13183	1536158.0	1182693.0	696944.0	0.261490	0.528844
     30020.70	0.12238	1406108.0	1082494.0	638080.0	0.261558	0.528559
     30021.22	0.13004	1544935.0	1189554.0	700987.0	0.261403	0.528844
     30021.74	0.11086	1332865.0	1026394.0	605035.0	0.261279	0.528521
     30022.26	0.12701	1438203.0	1107537.0	653329.0	0.261256	0.527813
     30022.78	0.12270	1413815.0	1088644.0	642217.0	0.261359	0.527762
     30023.30	0.12502	1445199.0	1112997.0	656333.0	0.261191	0.528143
     30023.81	0.11063	1332449.0	1026107.0	605058.0	0.261247	0.528203
     30024.33	0.12338	1403313.0	1080704.0	637484.0	0.261223	0.527839
     30024.85	0.13224	1523785.0	1173405.0	692256.0	0.261288	0.527709
     30025.37	0.12322	1453675.0	1119445.0	660165.0	0.261262	0.528099
     30025.89	0.096631	1131897.0	871601.0	514101.0	0.261319	0.527912
     30026.41	0.10826	1272538.0	980590.0	578473.0	0.260614	0.527763
     30026.93	0.10924	1241314.0	956204.0	564114.0	0.260954	0.527715
     30027.44	0.12832	1496899.0	1153193.0	680546.0	0.260861	0.527394
     30027.96	0.12632	1446401.0	1114409.0	657691.0	0.260754	0.527344
     30028.48	0.12700	1489917.0	1147942.0	677521.0	0.260750	0.527286
     30029.00	0.13593	1587833.0	1223341.0	721989.0	0.260785	0.527331
     30029.52	0.13682	1607956.0	1238878.0	731191.0	0.260758	0.527287
     30030.04	0.12029	1394820.0	1074784.0	634544.0	0.260646	0.526968
     30030.56	0.12365	1459532.0	1124851.0	663904.0	0.260465	0.527268
     30031.08	0.12650	1455183.0	1121571.0	662143.0	0.260401	0.527004
     30031.60	0.13159	1510129.0	1163730.0	687386.0	0.260565	0.526490
     30032.11	0.13265	1545533.0	1191056.0	703002.0	0.260529	0.527236
     30032.63	0.14406	1623899.0	1251213.0	739373.0	0.260717	0.526066
     30033.15	0.15036	1729222.0	1332730.0	787386.0	0.260442	0.526266
     30033.67	0.090217	1035151.0	797817.0	471418.0	0.260423	0.526134
     30034.19	0.11480	1352808.0	1042639.0	616105.0	0.260427	0.526093
     30034.71	0.14196	1652731.0	1273599.0	752572.0	0.260582	0.526105
     30035.23	0.13162	1506625.0	1160887.0	686142.0	0.260688	0.525855
     30035.75	0.12992	1494003.0	1151640.0	680579.0	0.260272	0.525998
     30036.27	0.14011	1657100.0	1277140.0	754647.0	0.260446	0.526128
     30036.78	0.13146	1536090.0	1184063.0	700258.0	0.260288	0.525258
     30037.30	0.14384	1659918.0	1279489.0	756420.0	0.260307	0.525619
     30037.82	0.11183	1303326.0	1004721.0	594057.0	0.260210	0.525490
     30038.34	0.13978	1588734.0	1224567.0	723990.0	0.260350	0.525565
     30038.86	0.12681	1476250.0	1138035.0	672840.0	0.260202	0.525551
     30039.38	0.13509	1535817.0	1184505.0	700750.0	0.259738	0.524929
     30039.90	0.11502	1312022.0	1011722.0	598371.0	0.259916	0.525198
     30040.42	0.12823	1471488.0	1134734.0	671370.0	0.259876	0.524833
     30040.94	0.12569	1456888.0	1123028.0	664555.0	0.260274	0.524666
     30041.46	0.12052	1361872.0	1050562.0	621811.0	0.259535	0.524444
     30041.98	0.12850	1464110.0	1128992.0	667834.0	0.259922	0.525041
     30042.50	0.12845	1476923.0	1139190.0	673997.0	0.259643	0.524847
     30043.01	0.12489	1433391.0	1105391.0	654347.0	0.259844	0.524317
     30043.53	0.12559	1450739.0	1118748.0	662087.0	0.259863	0.524569
     30044.05	0.13126	1520378.0	1172422.0	694018.0	0.259887	0.524329
     30044.57	0.12516	1426990.0	1100296.0	651716.0	0.259988	0.523726
     30045.09	0.11775	1326325.0	1022922.0	605388.0	0.259749	0.524549
     30045.61	0.11424	1290169.0	995379.0	589316.0	0.259405	0.524161
     30046.13	0.12920	1482371.0	1143398.0	676856.0	0.259638	0.524301
     30046.65	0.12094	1391280.0	1072885.0	635242.0	0.259873	0.524101
     30047.17	0.12616	1475926.0	1138616.0	674322.0	0.259472	0.523861
     30047.69	0.11062	1247777.0	962330.0	570019.0	0.259761	0.523688
     30048.21	0.12884	1524532.0	1175970.0	696471.0	0.259594	0.523822
     30048.73	0.12454	1439760.0	1110632.0	658187.0	0.259547	0.523195
     30049.25	0.12858	1486031.0	1146370.0	679008.0	0.259508	0.523723
