# Diamond Light Source
# Instrument: B18-CORE XAS Date: Wed, 27 Jul 2016 22:05:55 BST
# Ring energy:   3.0
# Ring current - start: 299.6
# Primary slits:  vertical gap=  2.4; horizontal gap= 52.0; vertical offset=  0.4; horizontal offset= -1.0
# Secondary slits:  vertical gap=  3.5; horizontal gap= 23.0; vertical offset=  5.3; horizontal offset= -14.5
# OH Mirror Coating: Pt
# White beam filter: 140um PyC
# Crystal cut: Si(311)
# PostDCM slits:  vertical gap= 18.0; horizontal gap= 28.0; vertical offset= -9.1; horizontal offset= -16.5
# Experimental slits:  vertical gap= 28.6; horizontal gap= 45.0; vertical offset=  5.7; horizontal offset= -17.5
# HR Mirror : out; Y: 37.8; Pitch:  0.3; Coating: Pt
# Mirror 2: Pitch:  2.3; Height: -6.4; Yaw: -1.6; Bend:  0.8;
# I0 Stanford sensitivity: 20 nA/V Offsets: 20 pA
# It Stanford sensitivity: 100 nA/V Offsets: 1 pA
# Iref Stanford sensitivity: 20 nA/V Offsets: 1 pA
#
# Ascii output file name: 'Andrea_Sn//ascii/262876_PtSn_OCO_Abu_2.dat'
# Nexus output file: '/dls/b18/data/2016/sp10306-9/Andrea_Sn//nexus/262876_PtSn_OCO_Abu_2.nxs'
# XML folder and files:
# /dls/b18/data/2016/sp10306-9/xml/Andrea_Sn/
# QEXAFS_Parameters
# Sample_Parameters
# Detector_Parameters
# Output_Parameters
# The contents of these files are also stored in the nexus file.
#
# Sample name: PtSn_OCO_Abu
# Sample description: default sample description
# Additional comments: default additional comments
# command: qexafs_energy 29000.0 30050.0 2094 263.53 qexafs_counterTimer01
#
#
# qexafs_energy	   time	       I0	       It	     Iref	  lnI0It	 lnItIref
     29000.24	0.14872	2327819.0	1852150.0	3853225.0	0.228585	-0.732563
     29000.73	0.14518	2253872.0	1793527.0	3731623.0	0.228466	-0.732659
     29001.21	0.17917	2798253.0	2226576.0	4632632.0	0.228530	-0.732660
     29001.69	0.075579	1182685.0	941271.0	1958401.0	0.228311	-0.732653
     29002.18	0.11813	1847761.0	1470466.0	3058875.0	0.228395	-0.732468
     29002.66	0.12741	1992012.0	1585378.0	3297636.0	0.228322	-0.732383
     29003.14	0.12897	1983604.0	1579316.0	3285265.0	0.227924	-0.732455
     29003.63	0.12179	1861454.0	1481549.0	3082265.0	0.228270	-0.732577
     29004.11	0.12560	1941595.0	1545517.0	3215293.0	0.228151	-0.732560
     29004.59	0.12612	1935421.0	1540710.0	3205349.0	0.228082	-0.732578
     29005.08	0.13353	2062524.0	1641759.0	3414691.0	0.228162	-0.732319
     29005.56	0.11651	1811394.0	1441870.0	2999917.0	0.228156	-0.732644
     29006.05	0.13597	2099063.0	1671115.0	3475863.0	0.228000	-0.732352
     29006.53	0.11343	1738861.0	1384543.0	2880481.0	0.227860	-0.732587
     29007.01	0.13178	2045364.0	1628319.0	3386723.0	0.228028	-0.732315
     29007.50	0.12290	1919348.0	1527757.0	3178466.0	0.228185	-0.732598
     29007.98	0.12863	1994805.0	1588273.0	3302840.0	0.227899	-0.732135
     29008.46	0.12361	1907744.0	1519223.0	3160064.0	0.227722	-0.732393
     29008.95	0.12058	1865483.0	1485823.0	3090671.0	0.227551	-0.732419
     29009.43	0.10803	1681210.0	1338676.0	2784709.0	0.227833	-0.732462
     29009.92	0.11870	1836176.0	1462446.0	3041710.0	0.227575	-0.732309
     29010.40	0.12057	1874738.0	1492708.0	3105145.0	0.227877	-0.732468
     29010.88	0.12073	1839627.0	1464898.0	3047130.0	0.227777	-0.732415
     29011.37	0.14178	2180887.0	1736638.0	3612586.0	0.227781	-0.732473
     29011.85	0.11853	1835329.0	1461864.0	3041085.0	0.227511	-0.732502
     29012.34	0.12787	1985976.0	1581566.0	3289948.0	0.227695	-0.732456
     29012.82	0.12134	1888131.0	1503725.0	3127690.0	0.227642	-0.732349
     29013.30	0.13370	2083057.0	1659306.0	3451017.0	0.227437	-0.732270
     29013.79	0.12302	1919090.0	1528423.0	3179387.0	0.227615	-0.732452
     29014.27	0.13316	2063330.0	1643627.0	3418520.0	0.227416	-0.732302
     29014.76	0.13084	2016273.0	1606215.0	3341025.0	0.227370	-0.732397
     29015.24	0.13284	2040256.0	1625472.0	3381755.0	0.227277	-0.732597
     29015.72	0.11742	1809802.0	1441651.0	2998984.0	0.227428	-0.732485
     29016.21	0.12510	1910812.0	1522155.0	3166582.0	0.227401	-0.732526
     29016.69	0.11228	1738163.0	1384441.0	2880135.0	0.227532	-0.732541
     29017.18	0.13618	2079490.0	1657080.0	3446591.0	0.227066	-0.732329
     29017.66	0.11941	1840606.0	1466388.0	3050123.0	0.227293	-0.732380
     29018.14	0.12668	1952312.0	1555484.0	3235461.0	0.227228	-0.732385
     29018.63	0.13419	2075776.0	1653875.0	3440543.0	0.227214	-0.732508
     29019.11	0.13352	2074690.0	1652961.0	3438610.0	0.227244	-0.732499
     29019.60	0.13217	2027496.0	1615549.0	3360402.0	0.227127	-0.732386
     29020.08	0.12850	1943762.0	1548564.0	3221340.0	0.227297	-0.732469
     29020.57	0.11843	1814505.0	1445822.0	3008042.0	0.227135	-0.732611
     29021.05	0.13148	1974624.0	1573791.0	3274170.0	0.226891	-0.732577
     29021.53	0.12957	1950461.0	1554863.0	3233856.0	0.226678	-0.732288
     29022.02	0.13064	1979805.0	1577839.0	3282864.0	0.226942	-0.732660
     29022.50	0.13034	1974238.0	1573646.0	3272652.0	0.226787	-0.732205
     29022.99	0.12922	1956097.0	1559011.0	3242217.0	0.226900	-0.732206
     29023.47	0.13382	2049031.0	1632897.0	3397286.0	0.227011	-0.732621
     29023.96	0.12244	1870583.0	1491013.0	3101497.0	0.226794	-0.732429
     29024.44	0.11406	1746914.0	1392261.0	2896683.0	0.226922	-0.732637
     29024.92	0.11150	1682102.0	1340797.0	2789294.0	0.226780	-0.732524
     29025.41	0.12607	1923826.0	1533264.0	3189913.0	0.226917	-0.732595
     29025.89	0.12701	1903154.0	1517514.0	3156576.0	0.226439	-0.732414
     29026.38	0.11514	1757226.0	1401185.0	2915137.0	0.226418	-0.732599
     29026.86	0.13275	2015272.0	1607098.0	3342765.0	0.226324	-0.732368
     29027.35	0.12375	1861395.0	1483910.0	3087506.0	0.226646	-0.732683
     29027.83	0.096306	1441093.0	1148727.0	2390072.0	0.226747	-0.732669
     29028.32	0.11123	1685100.0	1343598.0	2795125.0	0.226474	-0.732526
     29028.80	0.10927	1633853.0	1302853.0	2709853.0	0.226385	-0.732338
     29029.28	0.12883	1926661.0	1535869.0	3195387.0	0.226692	-0.732612
     29029.77	0.12178	1839427.0	1466599.0	3050856.0	0.226508	-0.732476
     29030.25	0.13837	2080709.0	1658826.0	3450774.0	0.226599	-0.732488
     29030.74	0.13119	1973575.0	1573853.0	3274014.0	0.226320	-0.732490
     29031.22	0.14657	2186139.0	1743933.0	3628236.0	0.225994	-0.732604
     29031.71	0.10791	1643654.0	1310391.0	2726389.0	0.226596	-0.732652
     29032.19	0.12311	1880873.0	1500225.0	3120945.0	0.226121	-0.732521
     29032.68	0.11463	1730955.0	1380634.0	2872151.0	0.226130	-0.732518
     29033.16	0.14196	2115469.0	1687135.0	3509924.0	0.226245	-0.732563
     29033.65	0.14165	2166239.0	1727813.0	3593552.0	0.226136	-0.732285
     29034.13	0.12222	1867259.0	1489272.0	3098010.0	0.226184	-0.732473
     29034.62	0.16520	2557967.0	2039858.0	4243513.0	0.226333	-0.732511
     29035.10	0.10328	1582936.0	1262769.0	2626873.0	0.225974	-0.732487
     29035.58	0.10013	1520577.0	1212801.0	2523079.0	0.226157	-0.732547
     29036.07	0.13743	2110139.0	1682737.0	3500414.0	0.226332	-0.732460
     29036.55	0.13207	2029985.0	1618903.0	3368057.0	0.226280	-0.732587
     29037.04	0.13622	2073079.0	1653483.0	3439281.0	0.226151	-0.732378
     29037.52	0.13095	2018738.0	1610618.0	3349461.0	0.225855	-0.732181
     29038.01	0.13144	2055311.0	1639559.0	3410490.0	0.226000	-0.732429
     29038.49	0.14394	2199157.0	1754353.0	3649782.0	0.225974	-0.732567
     29038.98	0.11675	1815045.0	1447614.0	3010826.0	0.226194	-0.732298
     29039.46	0.13047	2038877.0	1626470.0	3382552.0	0.225987	-0.732218
     29039.95	0.12517	1916966.0	1529459.0	3182086.0	0.225830	-0.732623
     29040.43	0.13090	2025748.0	1616154.0	3361864.0	0.225890	-0.732446
     29040.92	0.13263	2045556.0	1631660.0	3393182.0	0.226072	-0.732170
     29041.40	0.12953	2017303.0	1609486.0	3347110.0	0.225847	-0.732182
     29041.89	0.12788	1968517.0	1570625.0	3267151.0	0.225807	-0.732445
     29042.37	0.11997	1847909.0	1474359.0	3066415.0	0.225831	-0.732286
     29042.86	0.12648	1951600.0	1557325.0	3238753.0	0.225680	-0.732219
     29043.34	0.12081	1896661.0	1513522.0	3147799.0	0.225656	-0.732264
     29043.83	0.12380	1929542.0	1539582.0	3201678.0	0.225772	-0.732164
     29044.31	0.13466	2088791.0	1666516.0	3465887.0	0.225850	-0.732233
     29044.80	0.11823	1832802.0	1462131.0	3041392.0	0.225951	-0.732420
     29045.28	0.12701	1952438.0	1558205.0	3240433.0	0.225544	-0.732172
     29045.77	0.11897	1830650.0	1461217.0	3038457.0	0.225401	-0.732080
     29046.25	0.11710	1800665.0	1437289.0	2989124.0	0.225397	-0.732222
     29046.74	0.11721	1812702.0	1446440.0	3008495.0	0.225713	-0.732335
     29047.22	0.12134	1885557.0	1504625.0	3128995.0	0.225680	-0.732168
     29047.71	0.12322	1916719.0	1529761.0	3181161.0	0.225503	-0.732135
     29048.19	0.12796	1968962.0	1571620.0	3267214.0	0.225400	-0.731831
     29048.68	0.11030	1694716.0	1352734.0	2812624.0	0.225387	-0.731990
     29049.16	0.13096	2012819.0	1606772.0	3340930.0	0.225309	-0.732022
     29049.65	0.12157	1878298.0	1499311.0	3117596.0	0.225360	-0.732057
     29050.13	0.12951	1992698.0	1590827.0	3307834.0	0.225235	-0.732040
     29050.62	0.12499	1928422.0	1539176.0	3200353.0	0.225455	-0.732014
     29051.10	0.13723	2129433.0	1699762.0	3534122.0	0.225368	-0.731977
     29051.59	0.13159	2021167.0	1613660.0	3354288.0	0.225170	-0.731735
     29052.08	0.12400	1906850.0	1522409.0	3164906.0	0.225159	-0.731829
     29052.56	0.13000	2008779.0	1604112.0	3335047.0	0.224957	-0.731916
     29053.05	0.11800	1831621.0	1462351.0	3040504.0	0.225156	-0.731978
     29053.53	0.12430	1920563.0	1533061.0	3187277.0	0.225352	-0.731901
     29054.02	0.13250	2054496.0	1640274.0	3409166.0	0.225167	-0.731604
     29054.50	0.12465	1928959.0	1540568.0	3202088.0	0.224829	-0.731652
     29054.99	0.11895	1857385.0	1482923.0	3082565.0	0.225154	-0.731747
     29055.47	0.13145	2046368.0	1634132.0	3396614.0	0.224955	-0.731667
     29055.96	0.12299	1906695.0	1522785.0	3164864.0	0.224830	-0.731569
     29056.44	0.12988	2019089.0	1612210.0	3351097.0	0.225041	-0.731682
     29056.93	0.13854	2185575.0	1744824.0	3626358.0	0.225225	-0.731575
     29057.41	0.11802	1861201.0	1486129.0	3088814.0	0.225047	-0.731612
     29057.90	0.13367	2096552.0	1674209.0	3479277.0	0.224953	-0.731484
     29058.39	0.13047	2022818.0	1615377.0	3357487.0	0.224923	-0.731624
     29058.87	0.12709	1980470.0	1581514.0	3287426.0	0.224952	-0.731722
     29059.36	0.12647	1943522.0	1552511.0	3227058.0	0.224628	-0.731697
     29059.84	0.13897	2131166.0	1702278.0	3538066.0	0.224702	-0.731613
     29060.33	0.12752	1983894.0	1584808.0	3293867.0	0.224598	-0.731599
     29060.81	0.12642	1968465.0	1572464.0	3267627.0	0.224610	-0.731420
     29061.30	0.10588	1663106.0	1328370.0	2760202.0	0.224734	-0.731351
     29061.78	0.13567	2097232.0	1675385.0	3482267.0	0.224575	-0.731641
     29062.27	0.11664	1808716.0	1444516.0	3002091.0	0.224843	-0.731535
     29062.76	0.13275	2064550.0	1649371.0	3427135.0	0.224518	-0.731331
     29063.24	0.11323	1754785.0	1401854.0	2913250.0	0.224551	-0.731474
     29063.73	0.13185	2048208.0	1636421.0	3399985.0	0.224454	-0.731259
     29064.21	0.15484	2378632.0	1900335.0	3949251.0	0.224495	-0.731496
     29064.70	0.10354	1611021.0	1287084.0	2673821.0	0.224489	-0.731129
     29065.18	0.096710	1451505.0	1159715.0	2409393.0	0.224427	-0.731201
     29065.67	0.10376	1595997.0	1275168.0	2649720.0	0.224421	-0.731376
     29066.16	0.10256	1581870.0	1264194.0	2626329.0	0.224173	-0.731152
     29066.64	0.12575	1939002.0	1549504.0	3219212.0	0.224239	-0.731202
     29067.13	0.10661	1653732.0	1321240.0	2744938.0	0.224464	-0.731188
     29067.61	0.13752	2125268.0	1698203.0	3527725.0	0.224327	-0.731083
     29068.10	0.17806	2765504.0	2210107.0	4591393.0	0.224182	-0.731143
     29068.59	0.096901	1473717.0	1177875.0	2447284.0	0.224076	-0.731267
     29069.07	0.10888	1666154.0	1331621.0	2766480.0	0.224121	-0.731179
     29069.56	0.11536	1754589.0	1402919.0	2913620.0	0.223680	-0.730841
     29070.04	0.14063	2180914.0	1742709.0	3619506.0	0.224303	-0.730897
     29070.53	0.11942	1843664.0	1473438.0	3060718.0	0.224156	-0.731051
     29071.01	0.14237	2193788.0	1753571.0	3642405.0	0.223975	-0.730990
     29071.50	0.14509	2250746.0	1799065.0	3735946.0	0.223995	-0.730734
     29071.99	0.18115	2809804.0	2245967.0	4663938.0	0.223979	-0.730724
     29072.47	0.080542	1244136.0	994749.0	2065823.0	0.223706	-0.730794
     29072.96	0.097096	1509408.0	1206538.0	2505190.0	0.223962	-0.730609
     29073.44	0.13333	2068841.0	1653887.0	3434190.0	0.223860	-0.730653
     29073.93	0.13487	2069624.0	1654660.0	3435195.0	0.223771	-0.730478
     29074.42	0.13187	2021851.0	1616133.0	3355947.0	0.223977	-0.730698
     29074.90	0.13760	2107008.0	1684729.0	3497158.0	0.223664	-0.730346
     29075.39	0.12614	1934371.0	1546614.0	3210385.0	0.223714	-0.730323
     29075.87	0.16472	2520097.0	2014212.0	4182001.0	0.224069	-0.730562
     29076.36	0.12065	1862455.0	1489003.0	3090917.0	0.223789	-0.730361
     29076.85	0.11024	1722251.0	1377265.0	2858363.0	0.223533	-0.730149
     29077.33	0.13338	2068842.0	1653687.0	3432551.0	0.223982	-0.730296
     29077.82	0.12671	1948407.0	1557858.0	3233866.0	0.223700	-0.730367
     29078.31	0.12573	1946089.0	1555794.0	3228739.0	0.223836	-0.730106
     29078.79	0.12527	1920099.0	1535779.0	3187214.0	0.223339	-0.730109
     29079.28	0.13578	2087766.0	1670164.0	3465032.0	0.223173	-0.729800
     29079.76	0.14064	2168082.0	1733627.0	3596765.0	0.223627	-0.729819
     29080.25	0.10474	1629515.0	1302871.0	2703687.0	0.223712	-0.730046
     29080.74	0.13077	2004999.0	1603321.0	3326618.0	0.223566	-0.729879
     29081.22	0.12332	1890336.0	1511523.0	3135694.0	0.223637	-0.729733
     29081.71	0.12279	1870239.0	1495652.0	3103095.0	0.223504	-0.729838
     29082.20	0.13062	2010105.0	1607438.0	3335237.0	0.223545	-0.729902
     29082.68	0.12855	1955213.0	1564068.0	3244454.0	0.223209	-0.729657
     29083.17	0.11115	1698596.0	1358899.0	2818420.0	0.223127	-0.729502
     29083.65	0.12017	1812384.0	1449761.0	3006073.0	0.223244	-0.729236
     29084.14	0.12123	1848388.0	1478613.0	3065881.0	0.223209	-0.729230
     29084.63	0.12157	1853182.0	1482155.0	3074020.0	0.223407	-0.729489
     29085.11	0.11953	1860082.0	1488006.0	3085184.0	0.223184	-0.729174
     29085.60	0.12357	1880546.0	1504331.0	3119850.0	0.223214	-0.729437
     29086.09	0.11926	1838330.0	1470778.0	3049198.0	0.223066	-0.729087
     29086.57	0.13039	2011204.0	1609040.0	3336172.0	0.223096	-0.729186
     29087.06	0.12000	1827354.0	1461985.0	3031058.0	0.223074	-0.729117
     29087.55	0.12195	1868729.0	1494975.0	3098988.0	0.223149	-0.728966
     29088.03	0.12285	1859148.0	1487529.0	3083699.0	0.223002	-0.729013
     29088.52	0.13492	2061384.0	1649285.0	3418712.0	0.223036	-0.728922
     29089.01	0.12314	1889851.0	1512014.0	3132094.0	0.223055	-0.728259
     29089.49	0.12335	1862536.0	1490658.0	3088878.0	0.222721	-0.728590
     29089.98	0.15221	2336465.0	1869324.0	3872950.0	0.223062	-0.728440
     29090.47	0.12787	1972621.0	1578477.0	3270738.0	0.222903	-0.728555
     29090.95	0.11970	1845698.0	1476329.0	3059003.0	0.223299	-0.728530
     29091.44	0.11833	1812807.0	1450809.0	3006374.0	0.222755	-0.728613
     29091.93	0.13230	2029074.0	1623461.0	3362472.0	0.223019	-0.728116
     29092.41	0.12302	1889280.0	1511803.0	3130914.0	0.222893	-0.728022
     29092.90	0.12841	1989450.0	1591851.0	3297242.0	0.222961	-0.728189
     29093.39	0.12165	1855618.0	1484391.0	3075157.0	0.223213	-0.728351
     29093.87	0.12716	1956582.0	1565980.0	3242291.0	0.222687	-0.727768
     29094.36	0.13185	2039484.0	1632029.0	3379645.0	0.222873	-0.727947
     29094.85	0.12808	1943694.0	1555383.0	3220794.0	0.222868	-0.727906
     29095.33	0.13774	2124675.0	1700398.0	3520711.0	0.222757	-0.727801
     29095.82	0.10916	1669321.0	1336212.0	2765603.0	0.222578	-0.727420
     29096.31	0.14320	2191301.0	1754136.0	3629873.0	0.222519	-0.727221
     29096.79	0.13405	2044153.0	1636134.0	3385649.0	0.222647	-0.727209
     29097.28	0.12408	1918618.0	1535793.0	3177964.0	0.222558	-0.727194
     29097.77	0.13003	2014319.0	1612373.0	3336382.0	0.222574	-0.727180
     29098.25	0.12188	1859157.0	1488262.0	3079888.0	0.222514	-0.727284
     29098.74	0.12356	1920301.0	1537068.0	3180084.0	0.222605	-0.727031
     29099.23	0.12665	1945756.0	1557619.0	3222668.0	0.222492	-0.727051
     29099.71	0.12222	1881731.0	1506286.0	3115802.0	0.222545	-0.726840
     29100.20	0.12392	1911173.0	1529683.0	3163996.0	0.222657	-0.726775
     29100.69	0.12441	1900248.0	1521198.0	3146224.0	0.222486	-0.726705
     29101.17	0.12270	1877764.0	1503895.0	3109639.0	0.222023	-0.726448
     29101.66	0.12341	1896400.0	1518204.0	3138758.0	0.222429	-0.726299
     29102.15	0.11213	1711343.0	1369877.0	2832333.0	0.222557	-0.726380
     29102.64	0.11615	1788096.0	1431683.0	2959748.0	0.222301	-0.726253
     29103.12	0.11911	1812396.0	1451405.0	3000024.0	0.222118	-0.726088
     29103.61	0.10961	1687502.0	1351058.0	2793071.0	0.222361	-0.726254
     29104.10	0.11579	1778211.0	1423988.0	2941650.0	0.222146	-0.725509
     29104.58	0.11285	1712177.0	1370971.0	2832179.0	0.222246	-0.725527
     29105.07	0.12238	1851559.0	1482810.0	3063567.0	0.222089	-0.725641
     29105.56	0.12537	1916718.0	1534625.0	3169626.0	0.222328	-0.725328
     29106.04	0.12586	1904935.0	1525300.0	3150571.0	0.222257	-0.725393
     29106.53	0.12479	1886897.0	1510855.0	3120121.0	0.222258	-0.725196
     29107.02	0.11897	1817049.0	1455195.0	3004432.0	0.222074	-0.724949
     29107.51	0.12024	1817213.0	1455144.0	3005168.0	0.222199	-0.725229
     29107.99	0.13011	1975180.0	1582068.0	3265282.0	0.221927	-0.724613
     29108.48	0.13536	2028758.0	1624881.0	3353422.0	0.221989	-0.724547
     29108.97	0.13258	2016939.0	1615856.0	3334133.0	0.221716	-0.724348
     29109.46	0.13402	2030478.0	1626188.0	3355643.0	0.222033	-0.724405
     29109.94	0.12751	1938571.0	1552514.0	3203052.0	0.222076	-0.724229
     29110.43	0.13604	2048397.0	1640678.0	3383234.0	0.221948	-0.723722
     29110.92	0.12489	1897222.0	1519642.0	3133843.0	0.221916	-0.723785
     29111.40	0.12225	1827263.0	1463950.0	3018016.0	0.221681	-0.723461
     29111.89	0.13257	2022631.0	1620457.0	3340073.0	0.221691	-0.723284
     29112.38	0.12254	1851085.0	1482698.0	3055337.0	0.221909	-0.723026
     29112.87	0.12306	1841031.0	1474950.0	3039361.0	0.221702	-0.723023
     29113.35	0.14520	2226298.0	1783092.0	3673474.0	0.221991	-0.722789
     29113.84	0.14044	2119072.0	1697533.0	3495979.0	0.221802	-0.722437
     29114.33	0.13775	2086398.0	1671674.0	3442188.0	0.221614	-0.722282
     29114.82	0.13049	1990269.0	1594330.0	3282872.0	0.221816	-0.722265
     29115.30	0.12269	1843736.0	1477283.0	3040615.0	0.221589	-0.721855
     29115.79	0.13203	2013331.0	1612789.0	3319530.0	0.221826	-0.721858
     29116.28	0.12556	1893358.0	1516918.0	3122150.0	0.221671	-0.721841
     29116.77	0.14417	2163126.0	1733304.0	3565791.0	0.221525	-0.721356
     29117.25	0.12147	1842740.0	1475847.0	3035257.0	0.222022	-0.721064
     29117.74	0.13049	1965855.0	1575051.0	3238679.0	0.221640	-0.720878
     29118.23	0.11763	1789331.0	1433713.0	2947042.0	0.221574	-0.720534
     29118.72	0.12655	1911203.0	1530830.0	3146908.0	0.221923	-0.720610
     29119.20	0.11930	1792811.0	1436511.0	2951427.0	0.221568	-0.720072
     29119.69	0.12032	1834698.0	1469957.0	3019657.0	0.221647	-0.719910
     29120.18	0.12767	1951280.0	1563723.0	3211217.0	0.221416	-0.719580
     29120.67	0.12883	1967529.0	1576596.0	3236238.0	0.221510	-0.719143
     29121.15	0.11725	1749834.0	1401997.0	2878410.0	0.221623	-0.719340
     29121.64	0.12497	1862912.0	1492532.0	3063419.0	0.221667	-0.719058
     29122.13	0.12441	1869713.0	1498136.0	3073831.0	0.221563	-0.718703
     29122.62	0.10868	1588459.0	1273515.0	2611980.0	0.220984	-0.718328
     29123.10	0.13486	2043686.0	1637287.0	3357994.0	0.221714	-0.718303
     29123.59	0.11277	1691825.0	1355954.0	2779590.0	0.221303	-0.717798
     29124.08	0.11613	1745633.0	1398955.0	2866058.0	0.221392	-0.717212
     29124.57	0.11993	1778312.0	1425296.0	2919132.0	0.221285	-0.716907
     29125.06	0.13025	1956628.0	1568154.0	3211113.0	0.221323	-0.716718
     29125.54	0.11262	1674909.0	1342274.0	2748281.0	0.221394	-0.716610
     29126.03	0.12970	1940192.0	1554906.0	3181769.0	0.221372	-0.716022
     29126.52	0.11724	1761018.0	1411406.0	2887292.0	0.221306	-0.715733
     29127.01	0.13421	2033428.0	1629539.0	3332542.0	0.221426	-0.715438
     29127.49	0.12791	1934947.0	1550956.0	3171133.0	0.221208	-0.715217
     29127.98	0.11842	1781767.0	1427879.0	2917675.0	0.221415	-0.714597
     29128.47	0.13788	2054805.0	1647157.0	3364720.0	0.221130	-0.714294
     29128.96	0.13770	2064702.0	1654791.0	3379083.0	0.221311	-0.713930
     29129.45	0.12320	1827109.0	1464796.0	2990723.0	0.221019	-0.713799
     29129.93	0.12336	1856834.0	1488207.0	3036851.0	0.221301	-0.713249
     29130.42	0.11900	1759851.0	1411016.0	2878055.0	0.220919	-0.712805
     29130.91	0.12751	1895992.0	1520032.0	3099129.0	0.221011	-0.712390
     29131.40	0.12521	1894091.0	1518317.0	3094046.0	0.221137	-0.711877
     29131.89	0.12229	1836782.0	1472155.0	2999539.0	0.221288	-0.711731
     29132.37	0.12432	1835612.0	1471404.0	2996666.0	0.221161	-0.711283
     29132.86	0.12891	1911454.0	1532449.0	3119429.0	0.220997	-0.710783
     29133.35	0.13215	1948751.0	1561863.0	3178245.0	0.221309	-0.710450
     29133.84	0.12736	1868566.0	1498452.0	3047906.0	0.220739	-0.710022
     29134.33	0.12984	1959293.0	1570385.0	3192712.0	0.221263	-0.709550
     29134.81	0.12449	1866866.0	1496166.0	3039632.0	0.221355	-0.708831
     29135.30	0.13016	1939511.0	1554575.0	3157004.0	0.221234	-0.708421
     29135.79	0.13060	1940016.0	1555200.0	3157098.0	0.221092	-0.708049
     29136.28	0.12915	1919325.0	1538496.0	3121411.0	0.221168	-0.707480
     29136.77	0.12768	1888062.0	1513531.0	3069248.0	0.221106	-0.706987
     29137.25	0.13749	2090137.0	1675625.0	3395684.0	0.221043	-0.706319
     29137.74	0.12329	1830029.0	1467201.0	2971591.0	0.220975	-0.705741
     29138.23	0.12631	1900546.0	1523702.0	3084220.0	0.220998	-0.705156
     29138.72	0.12458	1858870.0	1490580.0	3014613.0	0.220803	-0.704306
     29139.21	0.12332	1859065.0	1490239.0	3014102.0	0.221137	-0.704365
     29139.70	0.12751	1925933.0	1543605.0	3118934.0	0.221290	-0.703371
     29140.18	0.12234	1838486.0	1473477.0	2976316.0	0.221317	-0.703061
     29140.67	0.12751	1875532.0	1503592.0	3035095.0	0.221035	-0.702386
     29141.16	0.10964	1650068.0	1322825.0	2668194.0	0.221047	-0.701632
     29141.65	0.13057	1941735.0	1556557.0	3137352.0	0.221106	-0.700903
     29142.14	0.11364	1699333.0	1361955.0	2744236.0	0.221315	-0.700582
     29142.63	0.12678	1919028.0	1538365.0	3096781.0	0.221099	-0.699643
     29143.11	0.11238	1681202.0	1347958.0	2711420.0	0.220918	-0.698882
     29143.60	0.11208	1661698.0	1332193.0	2677981.0	0.221014	-0.698237
     29144.09	0.12082	1798719.0	1441738.0	2896750.0	0.221225	-0.697740
     29144.58	0.11930	1785871.0	1431433.0	2873762.0	0.221230	-0.696946
     29145.07	0.11275	1696017.0	1359573.0	2726144.0	0.221112	-0.695717
     29145.56	0.12604	1895403.0	1519515.0	3044656.0	0.221040	-0.694997
     29146.04	0.11253	1664580.0	1334514.0	2672457.0	0.221006	-0.694431
     29146.53	0.13801	2056909.0	1648594.0	3298310.0	0.221282	-0.693487
     29147.02	0.13077	1952130.0	1564508.0	3128113.0	0.221350	-0.692859
     29147.51	0.11357	1698897.0	1361811.0	2720125.0	0.221164	-0.691862
     29148.00	0.13816	2067825.0	1657213.0	3306192.0	0.221360	-0.690660
     29148.49	0.11630	1723238.0	1381183.0	2753393.0	0.221265	-0.689894
     29148.98	0.14513	2148674.0	1722169.0	3429674.0	0.221266	-0.688881
     29149.46	0.10960	1621966.0	1300168.0	2586493.0	0.221146	-0.687809
     29149.95	0.17627	2637359.0	2114124.0	4200902.0	0.221137	-0.686659
     29150.44	0.11486	1740202.0	1394075.0	2768432.0	0.221770	-0.686050
     29150.93	0.10003	1495233.0	1198148.0	2375752.0	0.221505	-0.684537
     29151.42	0.13444	2003003.0	1605488.0	3179948.0	0.221220	-0.683437
     29151.91	0.12463	1852118.0	1484535.0	2936940.0	0.221228	-0.682267
     29152.40	0.14087	2088112.0	1673076.0	3306730.0	0.221596	-0.681296
     29152.88	0.11388	1698769.0	1361257.0	2685909.0	0.221495	-0.679611
     29153.37	0.14814	2228681.0	1785920.0	3520326.0	0.221476	-0.678620
     29153.86	0.17021	2560021.0	2050920.0	4036866.0	0.221727	-0.677180
     29154.35	0.10493	1566551.0	1255235.0	2467579.0	0.221554	-0.675915
     29154.84	0.10614	1597231.0	1279777.0	2512249.0	0.221586	-0.674493
     29155.33	0.14170	2095802.0	1679057.0	3290748.0	0.221704	-0.672883
     29155.82	0.12373	1846440.0	1479473.0	2895774.0	0.221574	-0.671566
     29156.31	0.13380	2012463.0	1612622.0	3151287.0	0.221498	-0.669950
     29156.79	0.13297	2006132.0	1607041.0	3135061.0	0.221814	-0.668254
     29157.28	0.12352	1846452.0	1479101.0	2880443.0	0.221831	-0.666510
     29157.77	0.12400	1873091.0	1500562.0	2917228.0	0.221750	-0.664794
     29158.26	0.12655	1891635.0	1515235.0	2940978.0	0.221871	-0.663172
     29158.75	0.13007	1928301.0	1544512.0	2991864.0	0.221931	-0.661189
     29159.24	0.11796	1738919.0	1392419.0	2692597.0	0.222221	-0.659464
     29159.73	0.12715	1918326.0	1535984.0	2963465.0	0.222282	-0.657188
     29160.22	0.12369	1866605.0	1494421.0	2878465.0	0.222382	-0.655518
     29160.71	0.13075	1961474.0	1570659.0	3017474.0	0.222201	-0.652925
     29161.19	0.12357	1845398.0	1477560.0	2831959.0	0.222303	-0.650577
     29161.68	0.13258	1965172.0	1572960.0	3007320.0	0.222621	-0.648090
     29162.17	0.11721	1713124.0	1371239.0	2616045.0	0.222604	-0.645949
     29162.66	0.12129	1798710.0	1439339.0	2739032.0	0.222886	-0.643421
     29163.15	0.12294	1804616.0	1444439.0	2739931.0	0.222627	-0.640212
     29163.64	0.13468	1988100.0	1591164.0	3010587.0	0.222714	-0.637669
     29164.13	0.11093	1656445.0	1325043.0	2499361.0	0.223229	-0.634590
     29164.62	0.11894	1770737.0	1416681.0	2663635.0	0.223079	-0.631375
     29165.11	0.12354	1843098.0	1474115.0	2762308.0	0.223390	-0.628009
     29165.60	0.11996	1775259.0	1419333.0	2650620.0	0.223759	-0.624607
     29166.09	0.12100	1822233.0	1456862.0	2710400.0	0.223778	-0.620811
     29166.57	0.13064	1944885.0	1554927.0	2882299.0	0.223774	-0.617160
     29167.06	0.13106	1923774.0	1537731.0	2837113.0	0.223981	-0.612479
     29167.55	0.11505	1721026.0	1375446.0	2527288.0	0.224143	-0.608369
     29168.04	0.13731	2022948.0	1616786.0	2955669.0	0.224116	-0.603285
     29168.53	0.12684	1880677.0	1502863.0	2735863.0	0.224260	-0.599075
     29169.02	0.12891	1916721.0	1531282.0	2770899.0	0.224511	-0.593067
     29169.51	0.12221	1773401.0	1416471.0	2549366.0	0.224731	-0.587676
     29170.00	0.13810	2020677.0	1613619.0	2886452.0	0.224953	-0.581549
     29170.49	0.11214	1635032.0	1305225.0	2320347.0	0.225287	-0.575341
     29170.98	0.12349	1835811.0	1465341.0	2587078.0	0.225398	-0.568441
     29171.47	0.12051	1760420.0	1404567.0	2461815.0	0.225823	-0.561170
     29171.96	0.13444	1954444.0	1558986.0	2710649.0	0.226070	-0.553152
     29172.45	0.12084	1779931.0	1419228.0	2446801.0	0.226462	-0.544668
     29172.94	0.13665	2030842.0	1619055.0	2766606.0	0.226608	-0.535779
     29173.42	0.13177	1941634.0	1547196.0	2616766.0	0.227086	-0.525495
     29173.91	0.11581	1733386.0	1380314.0	2310783.0	0.227766	-0.515275
     29174.40	0.13989	2058692.0	1638714.0	2710333.0	0.228159	-0.503160
     29174.89	0.12637	1863793.0	1482896.0	2422577.0	0.228617	-0.490835
     29175.38	0.13845	2041419.0	1623824.0	2616214.0	0.228861	-0.476944
     29175.87	0.12048	1781939.0	1416426.0	2246393.0	0.229565	-0.461189
     29176.36	0.12737	1863771.0	1481130.0	2312128.0	0.229797	-0.445363
     29176.85	0.13234	1914769.0	1520066.0	2326674.0	0.230843	-0.425686
     29177.34	0.13836	2039744.0	1618470.0	2428783.0	0.231343	-0.405909
     29177.83	0.11224	1692874.0	1341988.0	1972415.0	0.232276	-0.385107
     29178.32	0.12287	1813234.0	1436288.0	2056155.0	0.233050	-0.358776
     29178.81	0.12630	1834053.0	1451971.0	2019868.0	0.233606	-0.330110
     29179.30	0.12311	1777787.0	1405568.0	1896086.0	0.234928	-0.299350
     29179.79	0.12884	1882553.0	1486874.0	1935812.0	0.235953	-0.263851
     29180.28	0.12394	1825573.0	1440592.0	1805705.0	0.236840	-0.225897
     29180.77	0.11914	1749304.0	1378267.0	1652124.0	0.238391	-0.181235
     29181.26	0.13332	1940197.0	1526834.0	1746019.0	0.239593	-0.134142
     29181.75	0.10403	1504429.0	1181495.0	1275673.0	0.241633	-0.0766933
     29182.24	0.11035	1604273.0	1257631.0	1284288.0	0.243441	-0.0209747
     29182.73	0.10790	1558148.0	1218902.0	1166296.0	0.245547	0.0441175
     29183.22	0.12920	1867992.0	1458396.0	1305225.0	0.247527	0.110962
     29183.71	0.11215	1625994.0	1266029.0	1051237.0	0.250234	0.185918
     29184.20	0.11639	1718226.0	1334200.0	1032537.0	0.252961	0.256313
     29184.68	0.13100	1887602.0	1460762.0	1045656.0	0.256349	0.334314
     29185.17	0.11279	1625392.0	1253563.0	832457.0	0.259759	0.409364
     29185.66	0.12110	1784694.0	1371500.0	848366.0	0.263342	0.480348
     29186.15	0.12606	1847487.0	1413437.0	815698.0	0.267802	0.549735
     29186.64	0.13773	2016420.0	1535562.0	828202.0	0.272427	0.617395
     29187.13	0.11923	1746319.0	1323633.0	673734.0	0.277130	0.675300
     29187.62	0.13318	1961070.0	1477630.0	713126.0	0.283051	0.728537
     29188.11	0.13097	1905209.0	1427429.0	657856.0	0.288717	0.774644
     29188.60	0.14637	2125569.0	1582896.0	703255.0	0.294783	0.811292
     29189.09	0.12368	1814109.0	1342570.0	580194.0	0.301009	0.838978
     29189.58	0.12188	1781724.0	1310100.0	555745.0	0.307478	0.857549
     29190.07	0.12688	1880821.0	1374572.0	576948.0	0.313566	0.868146
     29190.56	0.11683	1733296.0	1259643.0	526509.0	0.319196	0.872315
     29191.05	0.13789	2017990.0	1458508.0	611396.0	0.324688	0.869424
     29191.54	0.14011	2058095.0	1480539.0	625193.0	0.329375	0.862101
     29192.03	0.12658	1884175.0	1349780.0	576058.0	0.333548	0.851489
     29192.52	0.12475	1849434.0	1321110.0	570894.0	0.336407	0.839024
     29193.01	0.13236	1958382.0	1395098.0	612386.0	0.339154	0.823357
     29193.50	0.13470	1971137.0	1402106.0	625933.0	0.340635	0.806487
     29193.99	0.12547	1831879.0	1302011.0	590367.0	0.341432	0.790921
     29194.48	0.13813	2041651.0	1450842.0	667908.0	0.341615	0.775749
     29194.97	0.12815	1895774.0	1347332.0	629519.0	0.341501	0.760926
     29195.46	0.13812	2004690.0	1427458.0	676973.0	0.339594	0.746019
     29195.95	0.11615	1699821.0	1212205.0	582211.0	0.338082	0.733363
     29196.44	0.13699	2056015.0	1468962.0	713480.0	0.336214	0.722157
     29196.93	0.11277	1647285.0	1180202.0	579581.0	0.333443	0.711135
     29197.42	0.11949	1757067.0	1261298.0	624998.0	0.331505	0.702148
     29197.92	0.13029	1892373.0	1362467.0	680751.0	0.328535	0.693856
     29198.41	0.13022	1925055.0	1389675.0	699003.0	0.325885	0.687170
     29198.90	0.12783	1891618.0	1368749.0	693032.0	0.323535	0.680576
     29199.39	0.12029	1772940.0	1286665.0	654292.0	0.320586	0.676255
     29199.88	0.12738	1871102.0	1360967.0	695154.0	0.318332	0.671817
     29200.37	0.11709	1721426.0	1255036.0	642776.0	0.315989	0.669123
     29200.86	0.13461	1950497.0	1425090.0	731516.0	0.313849	0.666871
     29201.35	0.12151	1801624.0	1319164.0	677661.0	0.311690	0.666106
     29201.84	0.13321	1954239.0	1433498.0	736862.0	0.309883	0.665472
     29202.33	0.11141	1652830.0	1214476.0	623959.0	0.308176	0.665983
     29202.82	0.11841	1737740.0	1278917.0	656514.0	0.306572	0.666825
     29203.31	0.12885	1916779.0	1412402.0	724246.0	0.305354	0.667916
     29203.80	0.11406	1679489.0	1239056.0	633754.0	0.304140	0.670444
     29204.29	0.11915	1744879.0	1289067.0	657772.0	0.302767	0.672816
     29204.78	0.12969	1929063.0	1426276.0	725772.0	0.301968	0.675586
     29205.27	0.12111	1767329.0	1307785.0	663694.0	0.301135	0.678269
     29205.76	0.12147	1800120.0	1332803.0	674219.0	0.300569	0.681485
     29206.25	0.13703	2000969.0	1482473.0	747647.0	0.299920	0.684536
     29206.74	0.12770	1867551.0	1384487.0	696251.0	0.299298	0.687375
     29207.23	0.13167	1953782.0	1449729.0	726965.0	0.298390	0.690254
     29207.72	0.13284	1960126.0	1455354.0	727517.0	0.297760	0.693367
     29208.21	0.12202	1787497.0	1328006.0	662747.0	0.297138	0.695041
     29208.70	0.12894	1899654.0	1412344.0	702972.0	0.296421	0.697689
     29209.19	0.12299	1806520.0	1343410.0	667745.0	0.296191	0.699060
     29209.69	0.13036	1914012.0	1424518.0	706743.0	0.295368	0.700922
     29210.18	0.12401	1829376.0	1362159.0	674990.0	0.294904	0.702128
     29210.67	0.12922	1902280.0	1417169.0	701898.0	0.294392	0.702628
     29211.16	0.11902	1754559.0	1307904.0	647374.0	0.293792	0.703257
     29211.65	0.13216	1950016.0	1454364.0	720171.0	0.293269	0.702835
     29212.14	0.12501	1838848.0	1372119.0	679793.0	0.292783	0.702323
     29212.63	0.12680	1869294.0	1396179.0	692447.0	0.291822	0.701263
     29213.12	0.12288	1801963.0	1346873.0	668946.0	0.291091	0.699838
     29213.61	0.13196	1939026.0	1450141.0	721733.0	0.290525	0.697761
     29214.10	0.12146	1770235.0	1324752.0	660735.0	0.289887	0.695628
     29214.59	0.13553	1956574.0	1465088.0	733155.0	0.289280	0.692313
     29215.08	0.13095	1943931.0	1456123.0	730984.0	0.288935	0.689141
     29215.57	0.13425	1979732.0	1484295.0	748063.0	0.288022	0.685208
     29216.06	0.14137	2080220.0	1560795.0	789745.0	0.287278	0.681240
     29216.56	0.11158	1643405.0	1233337.0	626960.0	0.287047	0.676596
     29217.05	0.11583	1691258.0	1270114.0	648554.0	0.286366	0.672117
     29217.54	0.13099	1914341.0	1437918.0	737450.0	0.286177	0.667753
     29218.03	0.12412	1839269.0	1381479.0	711477.0	0.286214	0.663567
     29218.52	0.12677	1861894.0	1399498.0	723324.0	0.285481	0.660012
     29219.01	0.12226	1818832.0	1367523.0	709061.0	0.285193	0.656815
     29219.50	0.12933	1895272.0	1424608.0	740914.0	0.285466	0.653767
     29219.99	0.14081	2095729.0	1575834.0	821420.0	0.285117	0.651505
     29220.48	0.099112	1453003.0	1092416.0	570576.0	0.285241	0.649501
     29220.97	0.11368	1689604.0	1270080.0	663417.0	0.285414	0.649431
     29221.47	0.10923	1598653.0	1201864.0	628039.0	0.285288	0.649027
     29221.96	0.12170	1777217.0	1335506.0	697416.0	0.285738	0.649683
     29222.45	0.10844	1618301.0	1216087.0	633680.0	0.285739	0.651850
     29222.94	0.12273	1792015.0	1346078.0	700110.0	0.286146	0.653713
     29223.43	0.11596	1697609.0	1274713.0	661344.0	0.286500	0.656202
     29223.92	0.12865	1879832.0	1411417.0	730401.0	0.286588	0.658756
     29224.41	0.11150	1645490.0	1235137.0	636697.0	0.286856	0.662643
     29224.90	0.12087	1815077.0	1361512.0	699563.0	0.287532	0.665895
     29225.39	0.12735	1875780.0	1406870.0	719933.0	0.287657	0.669965
     29225.89	0.13908	2047848.0	1535446.0	782939.0	0.287969	0.673521
     29226.38	0.11992	1739210.0	1303703.0	661841.0	0.288222	0.677939
     29226.87	0.15051	2229223.0	1670864.0	844705.0	0.288312	0.682109
     29227.36	0.13714	2051830.0	1537136.0	774206.0	0.288811	0.685838
     29227.85	0.16687	2476075.0	1854194.0	930651.0	0.289225	0.689321
     29228.34	0.081683	1192631.0	892890.0	446316.0	0.289454	0.693436
     29228.83	0.12839	1885534.0	1411345.0	702421.0	0.289668	0.697765
     29229.32	0.11172	1648504.0	1233268.0	611460.0	0.290201	0.701573
     29229.81	0.12979	1937655.0	1448421.0	715236.0	0.291004	0.705617
     29230.31	0.13319	1942498.0	1451948.0	714054.0	0.291069	0.709703
     29230.80	0.13595	1994854.0	1490743.0	730330.0	0.291296	0.713533
     29231.29	0.15385	2269146.0	1694640.0	826748.0	0.291933	0.717726
     29231.78	0.13923	2049281.0	1530351.0	743884.0	0.291992	0.721367
     29232.27	0.10877	1620576.0	1209545.0	585688.0	0.292537	0.725212
     29232.76	0.12409	1839483.0	1372716.0	662097.0	0.292693	0.729134
     29233.25	0.12745	1891337.0	1410992.0	678182.0	0.292991	0.732633
     29233.75	0.13348	1951405.0	1454496.0	697208.0	0.293890	0.735331
     29234.24	0.13290	1916101.0	1427982.0	682178.0	0.294030	0.738727
     29234.73	0.13652	1992007.0	1483786.0	706746.0	0.294546	0.741681
     29235.22	0.20246	2978564.0	2217252.0	1054020.0	0.295173	0.743657
     29235.71	0.087612	1289476.0	959464.0	455055.0	0.295616	0.745957
     29236.20	0.081470	1197036.0	890564.0	421944.0	0.295749	0.746982
     29236.69	0.11718	1700007.0	1264242.0	598313.0	0.296160	0.748114
     29237.19	0.12385	1817623.0	1351419.0	639235.0	0.296374	0.748638
     29237.68	0.12582	1855852.0	1378961.0	651848.0	0.297014	0.749274
     29238.17	0.12608	1869612.0	1389028.0	657058.0	0.297127	0.748587
     29238.66	0.12987	1899858.0	1411087.0	668373.0	0.297419	0.747269
     29239.15	0.16515	2398933.0	1781258.0	844907.0	0.297704	0.745849
     29239.64	0.084141	1229067.0	912165.0	433296.0	0.298190	0.744400
     29240.14	0.10878	1610879.0	1195333.0	569123.0	0.298355	0.742084
     29240.63	0.13164	1944764.0	1442607.0	688538.0	0.298689	0.739637
     29241.12	0.11323	1654983.0	1227276.0	587746.0	0.298994	0.736257
     29241.61	0.12073	1768394.0	1311188.0	630108.0	0.299138	0.732798
     29242.10	0.11906	1753567.0	1300086.0	626527.0	0.299222	0.729994
     29242.59	0.12482	1802607.0	1336159.0	646609.0	0.299435	0.725813
     29243.09	0.12612	1857200.0	1376485.0	668384.0	0.299537	0.722426
     29243.58	0.11461	1649876.0	1222415.0	596443.0	0.299872	0.717600
     29244.07	0.12906	1883480.0	1395201.0	683134.0	0.300083	0.714103
     29244.56	0.11938	1752456.0	1298119.0	638296.0	0.300102	0.709869
     29245.05	0.12953	1900430.0	1407315.0	694972.0	0.300397	0.705567
     29245.55	0.13072	1905181.0	1410995.0	699369.0	0.300282	0.701872
     29246.04	0.12994	1905422.0	1411099.0	701971.0	0.300335	0.698232
     29246.53	0.13532	1964020.0	1454119.0	726591.0	0.300593	0.693792
     29247.02	0.13042	1906043.0	1411178.0	707342.0	0.300605	0.690666
     29247.51	0.12097	1782918.0	1319771.0	664064.0	0.300793	0.686835
     29248.00	0.12187	1798514.0	1331227.0	671935.0	0.300860	0.683695
     29248.50	0.12540	1827582.0	1353008.0	685202.0	0.300664	0.680372
     29248.99	0.12304	1813619.0	1342309.0	681793.0	0.300933	0.677420
     29249.48	0.12459	1834170.0	1357320.0	691323.0	0.301080	0.674660
     29249.97	0.12924	1869216.0	1383174.0	706363.0	0.301138	0.672007
     29250.46	0.13493	1978716.0	1464550.0	749319.0	0.300900	0.670139
     29250.96	0.12130	1770794.0	1310654.0	671727.0	0.300902	0.668430
     29251.45	0.12133	1765218.0	1306518.0	671266.0	0.300909	0.665955
     29251.94	0.13677	1991878.0	1474823.0	758309.0	0.300540	0.665202
     29252.43	0.12589	1852171.0	1370875.0	705826.0	0.300909	0.663836
     29252.92	0.13293	1941977.0	1437014.0	740284.0	0.301139	0.663289
     29253.42	0.12228	1795778.0	1328965.0	685002.0	0.301038	0.662734
     29253.91	0.14594	2117088.0	1567153.0	807882.0	0.300781	0.662600
     29254.40	0.13269	1914383.0	1417307.0	730474.0	0.300637	0.662820
     29254.89	0.11187	1655906.0	1226256.0	632324.0	0.300383	0.662319
     29255.39	0.12560	1853621.0	1372368.0	707020.0	0.300603	0.663234
     29255.88	0.11848	1717171.0	1271581.0	654595.0	0.300417	0.664000
     29256.37	0.12609	1793726.0	1328986.0	683117.0	0.299879	0.665505
     29256.86	0.12051	1735649.0	1286259.0	660604.0	0.299643	0.666339
     29257.35	0.12958	1868483.0	1384886.0	710018.0	0.299509	0.668083
     29257.85	0.12993	1893636.0	1404040.0	718604.0	0.299145	0.669799
     29258.34	0.18159	2621991.0	1944261.0	993137.0	0.299052	0.671769
     29258.83	0.10457	1503813.0	1115388.0	569193.0	0.298802	0.672738
     29259.32	0.094799	1364953.0	1012698.0	515054.0	0.298502	0.676102
     29259.82	0.12257	1789234.0	1327762.0	673962.0	0.298293	0.678076
     29260.31	0.081196	1162329.0	862766.0	436823.0	0.298038	0.680615
     29260.80	0.12002	1736879.0	1289048.0	650962.0	0.298186	0.683208
     29261.29	0.14212	2036899.0	1512357.0	761261.0	0.297759	0.686448
     29261.79	0.16059	2351931.0	1746571.0	876519.0	0.297582	0.689451
     29262.28	0.13376	1980414.0	1471046.0	736153.0	0.297332	0.692291
     29262.77	0.089677	1304667.0	969846.0	483399.0	0.296566	0.696295
     29263.26	0.073262	1087494.0	808361.0	401788.0	0.296623	0.699084
     29263.75	0.13025	1904477.0	1415343.0	701455.0	0.296836	0.701970
     29264.25	0.12167	1764339.0	1312489.0	648026.0	0.295851	0.705750
     29264.74	0.12913	1853919.0	1379471.0	678844.0	0.295602	0.709064
     29265.23	0.14513	2091742.0	1556629.0	763667.0	0.295475	0.712146
     29265.72	0.13636	2001036.0	1489455.0	728543.0	0.295255	0.715119
     29266.22	0.13354	1948815.0	1451068.0	707392.0	0.294922	0.718470
     29266.71	0.13316	1925078.0	1433598.0	696771.0	0.294779	0.721486
     29267.20	0.10782	1574283.0	1172612.0	568675.0	0.294566	0.723680
     29267.70	0.11581	1679767.0	1251856.0	604975.0	0.294028	0.727195
     29268.19	0.13082	1925755.0	1435075.0	692134.0	0.294101	0.729193
     29268.68	0.13553	1963363.0	1463538.0	704397.0	0.293802	0.731270
     29269.17	0.12609	1809382.0	1349366.0	648232.0	0.293350	0.733141
     29269.67	0.13978	2013973.0	1502451.0	720754.0	0.293012	0.734555
     29270.16	0.13227	1914185.0	1428057.0	684313.0	0.292977	0.735655
     29270.65	0.12578	1819739.0	1357836.0	650159.0	0.292801	0.736431
     29271.14	0.12845	1837755.0	1371540.0	655888.0	0.292611	0.737699
     29271.64	0.13538	1928583.0	1439678.0	688086.0	0.292366	0.738261
     29272.13	0.13503	1959301.0	1462811.0	699334.0	0.292228	0.737987
     29272.62	0.13533	1967577.0	1469485.0	702697.0	0.291891	0.737741
     29273.11	0.12853	1878475.0	1403194.0	671157.0	0.291709	0.737503
     29273.61	0.12513	1807505.0	1350347.0	646385.0	0.291586	0.736722
     29274.10	0.12443	1835707.0	1371728.0	657308.0	0.291358	0.735674
     29274.59	0.12700	1896843.0	1417273.0	679516.0	0.291456	0.735109
     29275.09	0.11780	1711147.0	1279154.0	614229.0	0.290965	0.733586
     29275.58	0.13345	1934352.0	1445835.0	695092.0	0.291085	0.732398
     29276.07	0.12852	1862566.0	1392414.0	670787.0	0.290916	0.730343
     29276.56	0.12148	1773691.0	1326193.0	640228.0	0.290750	0.728243
     29277.06	0.12432	1824111.0	1363803.0	659313.0	0.290816	0.726834
     29277.55	0.12627	1876081.0	1402795.0	679714.0	0.290718	0.724550
     29278.04	0.12559	1828565.0	1367585.0	663818.0	0.290485	0.722794
     29278.54	0.11192	1659282.0	1241061.0	603350.0	0.290418	0.721224
     29279.03	0.12910	1898791.0	1420294.0	692006.0	0.290353	0.719025
     29279.52	0.12437	1845073.0	1380430.0	673921.0	0.290124	0.717037
     29280.02	0.12155	1798425.0	1345683.0	658217.0	0.290010	0.715122
     29280.51	0.12283	1827562.0	1367633.0	670244.0	0.289901	0.713195
     29281.00	0.12712	1860316.0	1391952.0	683215.0	0.290039	0.711653
     29281.49	0.11314	1667442.0	1247649.0	613771.0	0.290030	0.709394
     29281.99	0.11077	1617232.0	1210128.0	596187.0	0.289990	0.707927
     29282.48	0.13402	1962045.0	1468661.0	724800.0	0.289636	0.706211
     29282.97	0.12750	1890110.0	1414851.0	699459.0	0.289611	0.704472
     29283.47	0.12925	1898845.0	1421209.0	703180.0	0.289738	0.703650
     29283.96	0.13226	1940860.0	1452884.0	720292.0	0.289581	0.701649
     29284.45	0.12589	1818081.0	1361106.0	675594.0	0.289484	0.700461
     29284.95	0.12818	1871619.0	1401224.0	696451.0	0.289458	0.699104
     29285.44	0.12681	1871689.0	1400936.0	696834.0	0.289701	0.698349
     29285.93	0.12976	1919675.0	1437219.0	715720.0	0.289446	0.697176
     29286.43	0.10874	1602932.0	1200093.0	598325.0	0.289435	0.696020
     29286.92	0.13193	1947780.0	1458534.0	727721.0	0.289258	0.695269
     29287.41	0.12143	1778393.0	1331103.0	664555.0	0.289702	0.694646
     29287.91	0.13389	1930364.0	1444978.0	722174.0	0.289614	0.693583
     29288.40	0.12362	1781453.0	1333506.0	666796.0	0.289618	0.693083
     29288.89	0.13146	1905658.0	1426841.0	713967.0	0.289364	0.692381
     29289.39	0.12370	1807116.0	1352656.0	676993.0	0.289662	0.692164
     29289.88	0.12288	1783149.0	1334966.0	668692.0	0.289475	0.691338
     29290.37	0.13119	1912105.0	1431461.0	717045.0	0.289509	0.691312
     29290.87	0.13036	1895790.0	1418987.0	711111.0	0.289692	0.690870
     29291.36	0.13618	2005691.0	1501169.0	752417.0	0.289745	0.690709
     29291.85	0.13102	1901045.0	1423066.0	713250.0	0.289590	0.690737
     29292.35	0.13885	2041006.0	1527800.0	765720.0	0.289614	0.690768
     29292.84	0.12411	1790871.0	1340361.0	672146.0	0.289763	0.690219
     29293.33	0.11882	1739140.0	1301306.0	652216.0	0.290022	0.690748
     29293.83	0.12198	1742637.0	1303833.0	653744.0	0.290091	0.690348
     29294.32	0.12646	1821286.0	1362672.0	682899.0	0.290095	0.690856
     29294.81	0.12867	1865488.0	1395861.0	699469.0	0.290011	0.690945
     29295.31	0.12239	1760701.0	1317587.0	659400.0	0.289910	0.692227
     29295.80	0.13177	1911715.0	1430633.0	715951.0	0.289884	0.692261
     29296.29	0.13801	1991973.0	1490119.0	745870.0	0.290270	0.692060
     29296.79	0.10853	1570657.0	1175144.0	587915.0	0.290103	0.692564
     29297.28	0.10574	1509677.0	1129312.0	564607.0	0.290287	0.693234
     29297.77	0.11991	1706420.0	1276687.0	637531.0	0.290129	0.694421
     29298.27	0.11152	1584596.0	1185187.0	591557.0	0.290429	0.694898
     29298.76	0.12292	1744725.0	1305110.0	651367.0	0.290310	0.694969
     29299.26	0.13858	1995205.0	1492104.0	744077.0	0.290560	0.695798
     29299.75	0.13554	1935455.0	1447063.0	721173.0	0.290806	0.696412
     29300.24	0.15517	2228665.0	1666619.0	830073.0	0.290606	0.697039
     29300.74	0.088315	1279363.0	956612.0	475878.0	0.290720	0.698236
     29301.23	0.072976	1025754.0	766945.0	381395.0	0.290768	0.698580
     29301.72	0.11979	1709614.0	1278358.0	634819.0	0.290691	0.699992
     29302.22	0.12422	1774247.0	1326542.0	658550.0	0.290801	0.700290
     29302.71	0.13426	1898872.0	1419525.0	703703.0	0.290938	0.701721
     29303.21	0.15146	2169298.0	1621917.0	803559.0	0.290795	0.702313
     29303.70	0.12240	1750222.0	1308121.0	647219.0	0.291151	0.703662
     29304.19	0.12741	1842553.0	1377274.0	681301.0	0.291046	0.703857
     29304.69	0.10826	1527545.0	1141548.0	564281.0	0.291277	0.704588
     29305.18	0.13597	1918955.0	1434303.0	708080.0	0.291102	0.705877
     29305.67	0.12453	1785436.0	1334280.0	658514.0	0.291271	0.706161
     29306.17	0.12861	1836180.0	1372236.0	676386.0	0.291246	0.707433
     29306.66	0.15543	2222003.0	1660908.0	817984.0	0.291045	0.708277
     29307.16	0.12335	1792551.0	1339465.0	659014.0	0.291369	0.709281
     29307.65	0.17801	2544016.0	1901073.0	935055.0	0.291325	0.709568
     29308.14	0.092970	1302041.0	972651.0	478287.0	0.291663	0.709814
     29308.64	0.10038	1415111.0	1057305.0	519567.0	0.291485	0.710483
     29309.13	0.13962	1979032.0	1479004.0	726068.0	0.291239	0.711480
     29309.63	0.13098	1878789.0	1404110.0	688946.0	0.291224	0.711996
     29310.12	0.13177	1857155.0	1387727.0	680558.0	0.291379	0.712509
     29310.61	0.14355	2084448.0	1556950.0	763060.0	0.291775	0.713147
     29311.11	0.12675	1826692.0	1364774.0	668605.0	0.291518	0.713551
     29311.60	0.13693	1941366.0	1450459.0	710464.0	0.291512	0.713717
     29312.10	0.11639	1636633.0	1222292.0	598734.0	0.291913	0.713666
     29312.59	0.12729	1817126.0	1357326.0	664597.0	0.291740	0.714091
     29313.08	0.12308	1754252.0	1310445.0	641153.0	0.291676	0.714854
     29313.58	0.12874	1845988.0	1378956.0	674772.0	0.291688	0.714707
     29314.07	0.12284	1776352.0	1326812.0	649502.0	0.291783	0.714328
     29314.57	0.13393	1911021.0	1427507.0	698356.0	0.291708	0.714956
     29315.06	0.11782	1678054.0	1253390.0	613169.0	0.291783	0.714967
     29315.56	0.13640	1946195.0	1453915.0	710787.0	0.291616	0.715642
     29316.05	0.11442	1621154.0	1210961.0	592030.0	0.291724	0.715612
     29316.54	0.12114	1729098.0	1291545.0	631509.0	0.291761	0.715482
     29317.04	0.12091	1729324.0	1291552.0	631251.0	0.291886	0.715896
     29317.53	0.12871	1841565.0	1375456.0	672087.0	0.291830	0.716153
     29318.03	0.12213	1763368.0	1316993.0	643867.0	0.291875	0.715614
     29318.52	0.12224	1737938.0	1298026.0	634559.0	0.291855	0.715670
     29319.02	0.11540	1636897.0	1222406.0	597834.0	0.291981	0.715263
     29319.51	0.12741	1836630.0	1371448.0	670718.0	0.292065	0.715274
     29320.00	0.11628	1681979.0	1255683.0	614331.0	0.292291	0.714901
     29320.50	0.11071	1600187.0	1194942.0	584619.0	0.292023	0.714893
     29320.99	0.12938	1857997.0	1387500.0	678885.0	0.291995	0.714807
     29321.49	0.12298	1755180.0	1310949.0	641641.0	0.291820	0.714478
     29321.98	0.13553	1924633.0	1437360.0	703728.0	0.291927	0.714171
     29322.48	0.12048	1722586.0	1286073.0	630026.0	0.292233	0.713588
     29322.97	0.14067	1989630.0	1485610.0	727740.0	0.292123	0.713637
     29323.47	0.13160	1875816.0	1401219.0	686819.0	0.291701	0.713027
     29323.96	0.12257	1743215.0	1302002.0	638371.0	0.291828	0.712739
     29324.45	0.12691	1791224.0	1337701.0	656129.0	0.291947	0.712350
     29324.95	0.12726	1800146.0	1344552.0	659812.0	0.291807	0.711861
     29325.44	0.11933	1706398.0	1274437.0	625766.0	0.291880	0.711283
     29325.94	0.12649	1801324.0	1345340.0	660830.0	0.291875	0.710905
     29326.43	0.13226	1856729.0	1387009.0	681753.0	0.291667	0.710237
     29326.93	0.12645	1799399.0	1343799.0	660878.0	0.291952	0.709687
     29327.42	0.11997	1706571.0	1274571.0	627046.0	0.291876	0.709345
     29327.92	0.12455	1763241.0	1317103.0	648183.0	0.291719	0.709017
     29328.41	0.12491	1780839.0	1330181.0	655418.0	0.291770	0.707797
     29328.91	0.12730	1830690.0	1367694.0	673592.0	0.291567	0.708257
     29329.40	0.14095	2046476.0	1528176.0	752931.0	0.292044	0.707857
     29329.89	0.12226	1751065.0	1308064.0	645104.0	0.291676	0.706892
     29330.39	0.14078	2015174.0	1505373.0	742860.0	0.291665	0.706288
     29330.88	0.14165	2025886.0	1513448.0	747123.0	0.291617	0.705916
     29331.38	0.12163	1725223.0	1289093.0	636670.0	0.291417	0.705443
     29331.87	0.10415	1469221.0	1097525.0	542723.0	0.291675	0.704214
     29332.37	0.13083	1824590.0	1363470.0	674016.0	0.291322	0.704534
     29332.86	0.12332	1721179.0	1285901.0	636299.0	0.291550	0.703546
     29333.36	0.12778	1826486.0	1364883.0	675267.0	0.291325	0.703716
     29333.85	0.12752	1797635.0	1343538.0	665148.0	0.291165	0.703052
     29334.35	0.12121	1752719.0	1309564.0	648568.0	0.291474	0.702683
     29334.84	0.13933	1994653.0	1490447.0	738437.0	0.291394	0.702296
     29335.34	0.11159	1583266.0	1183645.0	586641.0	0.290891	0.701941
     29335.83	0.11674	1691920.0	1264139.0	626850.0	0.291473	0.701439
     29336.33	0.12604	1764363.0	1319054.0	654164.0	0.290875	0.701312
     29336.82	0.11192	1577908.0	1179354.0	585243.0	0.291133	0.700695
     29337.32	0.12172	1713553.0	1281303.0	635950.0	0.290691	0.700513
     29337.81	0.11526	1618718.0	1210049.0	601024.0	0.290974	0.699781
     29338.31	0.11840	1681244.0	1257118.0	624255.0	0.290712	0.700018
     29338.80	0.11593	1629198.0	1217974.0	605175.0	0.290899	0.699426
     29339.30	0.13687	1940505.0	1450772.0	720974.0	0.290852	0.699248
     29339.79	0.097206	1390122.0	1039171.0	516554.0	0.290968	0.698999
     29340.29	0.11749	1658135.0	1239791.0	616049.0	0.290751	0.699372
     29340.78	0.12410	1756024.0	1313287.0	653161.0	0.290519	0.698465
     29341.28	0.12931	1842748.0	1378235.0	685619.0	0.290454	0.698237
     29341.77	0.13040	1886965.0	1411064.0	701903.0	0.290626	0.698304
     29342.27	0.14372	2034134.0	1521696.0	757245.0	0.290245	0.697894
     29342.76	0.15292	2131270.0	1594073.0	793413.0	0.290426	0.697704
     29343.26	0.12453	1752757.0	1311298.0	652536.0	0.290172	0.697906
     29343.75	0.089302	1255721.0	939446.0	467743.0	0.290175	0.697371
     29344.25	0.13790	1943309.0	1453892.0	723653.0	0.290148	0.697687
     29344.74	0.12902	1814334.0	1357730.0	676071.0	0.289904	0.697271
     29345.24	0.12451	1761744.0	1318532.0	656524.0	0.289785	0.697315
     29345.73	0.13315	1879301.0	1406182.0	700200.0	0.290022	0.697268
     29346.23	0.12432	1759928.0	1317114.0	655683.0	0.289830	0.697521
     29346.72	0.16039	2260523.0	1691735.0	842809.0	0.289842	0.696770
     29347.22	0.11984	1683218.0	1259783.0	627384.0	0.289768	0.697136
     29347.72	0.10913	1533201.0	1147862.0	571667.0	0.289457	0.697100
     29348.21	0.13276	1888078.0	1413472.0	703947.0	0.289510	0.697101
     29348.71	0.13634	1892115.0	1416534.0	705358.0	0.289482	0.697263
     29349.20	0.13834	1945815.0	1456929.0	725453.0	0.289350	0.697290
     29349.70	0.12922	1815468.0	1359679.0	676960.0	0.289095	0.697392
     29350.19	0.13504	1910904.0	1431169.0	712208.0	0.289085	0.697877
     29350.69	0.13857	1963591.0	1470644.0	732110.0	0.289075	0.697525
     29351.18	0.11956	1708297.0	1279349.0	636876.0	0.289146	0.697532
     29351.68	0.11829	1666890.0	1248498.0	621299.0	0.289018	0.697884
     29352.17	0.12904	1806167.0	1353090.0	673183.0	0.288816	0.698129
     29352.67	0.13533	1898824.0	1422826.0	707647.0	0.288590	0.698455
     29353.16	0.11180	1599403.0	1198268.0	595958.0	0.288753	0.698462
     29353.66	0.12769	1797671.0	1347192.0	669831.0	0.288470	0.698752
     29354.16	0.12365	1782093.0	1335590.0	663809.0	0.288415	0.699134
     29354.65	0.13743	1962588.0	1470630.0	730983.0	0.288573	0.699056
     29355.15	0.11963	1718997.0	1288269.0	640193.0	0.288442	0.699285
     29355.64	0.12681	1812415.0	1358364.0	674724.0	0.288379	0.699733
     29356.14	0.11018	1562046.0	1170913.0	581665.0	0.288213	0.699644
     29356.63	0.13328	1878437.0	1407822.0	699304.0	0.288396	0.699714
     29357.13	0.12762	1784725.0	1338184.0	664431.0	0.287951	0.700138
     29357.63	0.11651	1637318.0	1227954.0	609746.0	0.287710	0.700062
     29358.12	0.12396	1757802.0	1317896.0	654072.0	0.288028	0.700574
     29358.62	0.12473	1748308.0	1311432.0	650692.0	0.287529	0.700839
     29359.11	0.10585	1515514.0	1135961.0	563965.0	0.288276	0.700242
     29359.61	0.13144	1852102.0	1389159.0	688729.0	0.287623	0.701606
     29360.10	0.11586	1648406.0	1236239.0	613131.0	0.287735	0.701250
     29360.60	0.10892	1541577.0	1156821.0	573494.0	0.287130	0.701684
     29361.09	0.14289	2047617.0	1535633.0	761230.0	0.287734	0.701762
     29361.59	0.11729	1695659.0	1272376.0	630579.0	0.287185	0.702003
     29362.09	0.13157	1857261.0	1393772.0	690411.0	0.287089	0.702482
     29362.58	0.13083	1849061.0	1387439.0	687473.0	0.287218	0.702192
     29363.08	0.13636	1936316.0	1453292.0	719761.0	0.286956	0.702667
     29363.57	0.11930	1709123.0	1282710.0	635268.0	0.287005	0.702683
     29364.07	0.12685	1829585.0	1373102.0	679697.0	0.287017	0.703181
     29364.57	0.13210	1879904.0	1411111.0	698852.0	0.286843	0.702694
     29365.06	0.12393	1773618.0	1331443.0	658846.0	0.286758	0.703529
     29365.56	0.11892	1713176.0	1285641.0	636510.0	0.287092	0.703013
     29366.05	0.12706	1813744.0	1361792.0	674005.0	0.286592	0.703319
     29366.55	0.13189	1889883.0	1419255.0	702034.0	0.286383	0.703906
     29367.05	0.11890	1727090.0	1296628.0	642083.0	0.286671	0.702805
     29367.54	0.12289	1747141.0	1311833.0	649333.0	0.286555	0.703235
     29368.04	0.12410	1782789.0	1338730.0	662614.0	0.286458	0.703284
     29368.53	0.13660	1949249.0	1463789.0	724747.0	0.286416	0.702961
     29369.03	0.12768	1843133.0	1384195.0	685167.0	0.286348	0.703211
     29369.53	0.12679	1818837.0	1366338.0	676538.0	0.286063	0.702901
     29370.02	0.13829	1992407.0	1496717.0	741015.0	0.286069	0.703008
     29370.52	0.12250	1796079.0	1348797.0	667785.0	0.286393	0.703002
     29371.01	0.13312	1889893.0	1419661.0	702944.0	0.286102	0.702896
     29371.51	0.13200	1898660.0	1426152.0	706260.0	0.286168	0.702752
     29372.01	0.12381	1768361.0	1328402.0	658276.0	0.286076	0.702108
     29372.50	0.13069	1894203.0	1422841.0	705310.0	0.286143	0.701773
     29373.00	0.12778	1837852.0	1380561.0	684570.0	0.286108	0.701454
     29373.49	0.12578	1774312.0	1333355.0	661051.0	0.285714	0.701623
     29373.99	0.12657	1800610.0	1352852.0	671193.0	0.285911	0.700914
     29374.49	0.12504	1811600.0	1361195.0	675131.0	0.285847	0.701212
     29374.98	0.11654	1681717.0	1263616.0	626943.0	0.285838	0.700877
     29375.48	0.13041	1870700.0	1405785.0	697773.0	0.285717	0.700457
     29375.98	0.11530	1654470.0	1243025.0	617271.0	0.285933	0.699995
     29376.47	0.12989	1856774.0	1395367.0	693138.0	0.285683	0.699684
     29376.97	0.11417	1617469.0	1215786.0	603845.0	0.285472	0.699829
     29377.46	0.11941	1750706.0	1315757.0	654067.0	0.285607	0.698958
     29377.96	0.10653	1521173.0	1143294.0	568501.0	0.285568	0.698666
     29378.46	0.12947	1843849.0	1385772.0	689236.0	0.285598	0.698429
     29378.95	0.11042	1569334.0	1179454.0	586901.0	0.285600	0.697951
     29379.45	0.12259	1759953.0	1322591.0	658328.0	0.285694	0.697645
     29379.95	0.10146	1426464.0	1072091.0	534090.0	0.285588	0.696802
     29380.44	0.11951	1646869.0	1237723.0	617017.0	0.285603	0.696132
     29380.94	0.12782	1774001.0	1333505.0	664892.0	0.285427	0.695941
     29381.44	0.12382	1775380.0	1333915.0	665248.0	0.285896	0.695714
     29381.93	0.13750	1929314.0	1450459.0	723763.0	0.285284	0.695171
     29382.43	0.12818	1823820.0	1371058.0	684330.0	0.285350	0.694898
     29382.93	0.13249	1900150.0	1428625.0	713370.0	0.285220	0.694468
     29383.42	0.13290	1899342.0	1428035.0	713451.0	0.285208	0.693941
     29383.92	0.11770	1624483.0	1221010.0	610419.0	0.285511	0.693288
     29384.41	0.13404	1919302.0	1442901.0	721449.0	0.285306	0.693149
     29384.91	0.12940	1830173.0	1375578.0	688745.0	0.285536	0.691758
     29385.41	0.13176	1857736.0	1396604.0	699464.0	0.285315	0.691485
     29385.90	0.12298	1751679.0	1317370.0	659944.0	0.284937	0.691238
     29386.40	0.13475	1916440.0	1441060.0	722387.0	0.285090	0.690573
     29386.90	0.12052	1695469.0	1275067.0	639303.0	0.284961	0.690375
     29387.39	0.13716	1920904.0	1443832.0	724550.0	0.285495	0.689505
     29387.89	0.13102	1830224.0	1375994.0	690874.0	0.285262	0.688974
     29388.39	0.12255	1717305.0	1291392.0	648507.0	0.285035	0.688803
     29388.88	0.13702	1902788.0	1430998.0	718803.0	0.284948	0.688540
     29389.38	0.11063	1557464.0	1171346.0	588551.0	0.284905	0.688245
     29389.88	0.15362	2112599.0	1588671.0	798844.0	0.285021	0.687487
     29390.37	0.12785	1785592.0	1342598.0	675104.0	0.285143	0.687495
     29390.87	0.14356	2020786.0	1519739.0	764625.0	0.284948	0.686908
     29391.37	0.13077	1846327.0	1388592.0	699060.0	0.284908	0.686309
     29391.87	0.12984	1845838.0	1388300.0	699313.0	0.284853	0.685737
     29392.36	0.11819	1655859.0	1245396.0	627583.0	0.284866	0.685333
     29392.86	0.12441	1744879.0	1312494.0	661738.0	0.284756	0.684815
     29393.36	0.12827	1790821.0	1347077.0	679518.0	0.284737	0.684309
     29393.85	0.12815	1793940.0	1349115.0	680713.0	0.284965	0.684063
     29394.35	0.13166	1853599.0	1394483.0	703804.0	0.284605	0.683779
     29394.85	0.11786	1636055.0	1230737.0	621033.0	0.284675	0.683984
     29395.34	0.13121	1830159.0	1376552.0	695067.0	0.284821	0.683329
     29395.84	0.11232	1587472.0	1194117.0	603384.0	0.284736	0.682608
     29396.34	0.12660	1757223.0	1321999.0	667960.0	0.284590	0.682672
     29396.83	0.12328	1734802.0	1304851.0	659740.0	0.284804	0.681998
     29397.33	0.13096	1852555.0	1393891.0	704846.0	0.284467	0.681875
     29397.83	0.11893	1681574.0	1264693.0	639698.0	0.284901	0.681588
     29398.33	0.12231	1700155.0	1279020.0	647141.0	0.284625	0.681285
     29398.82	0.12068	1700878.0	1279650.0	647926.0	0.284558	0.680565
     29399.32	0.11892	1679869.0	1264006.0	639663.0	0.284430	0.681100
     29399.82	0.11777	1678552.0	1262804.0	639338.0	0.284597	0.680657
     29400.31	0.12255	1725364.0	1297909.0	656965.0	0.284684	0.680879
     29400.81	0.11953	1658877.0	1247807.0	632256.0	0.284753	0.679849
     29401.31	0.12486	1756363.0	1321647.0	669626.0	0.284367	0.679915
     29401.80	0.11615	1617308.0	1217378.0	616449.0	0.284064	0.680479
     29402.30	0.12822	1824381.0	1373152.0	695615.0	0.284132	0.680068
     29402.80	0.13128	1844276.0	1387501.0	703006.0	0.284583	0.679894
     29403.30	0.13015	1839100.0	1384013.0	701701.0	0.284289	0.679235
     29403.79	0.13083	1855554.0	1395974.0	707767.0	0.284591	0.679233
     29404.29	0.12439	1729007.0	1300887.0	659652.0	0.284501	0.679089
     29404.79	0.12331	1724336.0	1297672.0	657782.0	0.284270	0.679454
     29405.29	0.12709	1763163.0	1326895.0	672903.0	0.284268	0.678996
     29405.78	0.13018	1820019.0	1369732.0	694366.0	0.284232	0.679371
     29406.28	0.12641	1790745.0	1347516.0	683188.0	0.284369	0.679248
     29406.78	0.12218	1710069.0	1286972.0	652658.0	0.284242	0.678994
     29407.27	0.11569	1639676.0	1234466.0	626023.0	0.283860	0.679007
     29407.77	0.13299	1865503.0	1404376.0	712047.0	0.283938	0.679204
     29408.27	0.11758	1677067.0	1262354.0	640102.0	0.284068	0.679106
     29408.77	0.13160	1859568.0	1399832.0	709461.0	0.283992	0.679602
     29409.26	0.13414	1896876.0	1428324.0	724089.0	0.283707	0.679343
     29409.76	0.12999	1823350.0	1372204.0	695735.0	0.284257	0.679205
     29410.26	0.13253	1840408.0	1386004.0	702615.0	0.283562	0.679371
     29410.76	0.12948	1823368.0	1372465.0	696174.0	0.284077	0.678764
     29411.25	0.13128	1831643.0	1379071.0	699019.0	0.283803	0.679487
     29411.75	0.13636	1914996.0	1442211.0	730810.0	0.283538	0.679779
     29412.25	0.12321	1750839.0	1318314.0	667948.0	0.283741	0.679899
     29412.75	0.12937	1817694.0	1368594.0	693642.0	0.283785	0.679583
     29413.24	0.12381	1725084.0	1299461.0	658531.0	0.283326	0.679693
     29413.74	0.12362	1761302.0	1326395.0	671615.0	0.283589	0.680535
     29414.24	0.12684	1777543.0	1338935.0	678174.0	0.283358	0.680226
     29414.74	0.13150	1871831.0	1409899.0	714105.0	0.283399	0.680243
     29415.23	0.12127	1712647.0	1289883.0	653245.0	0.283489	0.680355
     29415.73	0.14206	2010819.0	1514048.0	766866.0	0.283755	0.680230
     29416.23	0.11385	1614584.0	1215843.0	615987.0	0.283640	0.679967
     29416.73	0.11622	1654842.0	1246482.0	630939.0	0.283380	0.680871
     29417.22	0.12380	1749840.0	1317869.0	667223.0	0.283508	0.680647
     29417.72	0.11530	1628889.0	1227072.0	621057.0	0.283267	0.680963
     29418.22	0.12809	1806040.0	1360349.0	688563.0	0.283395	0.680890
     29418.72	0.11547	1646816.0	1240207.0	627863.0	0.283565	0.680712
     29419.22	0.10838	1561088.0	1175808.0	595177.0	0.283427	0.680852
     29419.71	0.12841	1853064.0	1396036.0	706236.0	0.283204	0.681443
     29420.21	0.10374	1478163.0	1113745.0	563446.0	0.283072	0.681412
     29420.71	0.12138	1738874.0	1309974.0	662435.0	0.283230	0.681840
     29421.21	0.11741	1696178.0	1278029.0	646396.0	0.283058	0.681662
     29421.70	0.12364	1781795.0	1342445.0	678898.0	0.283129	0.681777
     29422.20	0.11900	1747875.0	1316927.0	665962.0	0.283100	0.681824
     29422.70	0.12870	1867129.0	1406604.0	711234.0	0.283224	0.681932
     29423.20	0.12517	1789807.0	1348419.0	681782.0	0.283175	0.681978
     29423.70	0.15622	2232827.0	1682461.0	850926.0	0.283011	0.681688
     29424.19	0.11852	1722316.0	1297830.0	655917.0	0.282976	0.682415
     29424.69	0.11520	1667790.0	1256860.0	635516.0	0.282883	0.681935
     29425.19	0.12392	1791490.0	1350098.0	682732.0	0.282870	0.681830
     29425.69	0.12876	1856269.0	1398714.0	707060.0	0.283015	0.682193
     29426.19	0.13553	1957534.0	1475495.0	746209.0	0.282692	0.681743
     29426.68	0.13206	1901857.0	1433358.0	725037.0	0.282811	0.681553
     29427.18	0.12488	1791473.0	1350064.0	682692.0	0.282886	0.681863
     29427.68	0.14962	2137312.0	1611421.0	814568.0	0.282433	0.682214
     29428.18	0.11308	1613986.0	1216440.0	615335.0	0.282778	0.681517
     29428.68	0.11061	1584313.0	1194371.0	603818.0	0.282531	0.682102
     29429.17	0.13239	1920143.0	1447081.0	731582.0	0.282851	0.682094
     29429.67	0.13898	2018347.0	1521194.0	769337.0	0.282783	0.681722
     29430.17	0.13827	2023655.0	1525399.0	771409.0	0.282649	0.681793
     29430.67	0.13512	1939836.0	1462516.0	739714.0	0.282445	0.681650
     29431.17	0.12593	1792046.0	1351096.0	683680.0	0.282442	0.681181
     29431.66	0.13883	1994033.0	1503243.0	760637.0	0.282534	0.681224
     29432.16	0.12407	1765439.0	1331014.0	673444.0	0.282458	0.681291
     29432.66	0.12755	1791795.0	1351557.0	683957.0	0.281961	0.681117
     29433.16	0.13132	1839830.0	1386781.0	702119.0	0.282688	0.680638
     29433.66	0.12460	1795163.0	1353653.0	685077.0	0.282289	0.681031
     29434.16	0.12349	1766573.0	1332123.0	674670.0	0.282268	0.680306
     29434.65	0.12212	1761506.0	1328289.0	673004.0	0.282277	0.679896
     29435.15	0.12382	1747606.0	1318175.0	667596.0	0.281999	0.680320
     29435.65	0.12967	1860189.0	1403074.0	710834.0	0.282013	0.679982
     29436.15	0.12583	1814090.0	1368006.0	693047.0	0.282230	0.680012
     29436.65	0.12233	1714503.0	1293467.0	655877.0	0.281797	0.679108
     29437.15	0.12076	1740113.0	1312200.0	665420.0	0.282245	0.679042
     29437.64	0.12402	1774945.0	1338707.0	678986.0	0.282065	0.678859
     29438.14	0.12867	1815330.0	1368924.0	694707.0	0.282242	0.678290
     29438.64	0.11683	1643489.0	1239742.0	629171.0	0.281918	0.678255
     29439.14	0.12084	1710963.0	1290775.0	655431.0	0.281814	0.677705
     29439.64	0.11950	1693220.0	1277138.0	648235.0	0.282010	0.678124
     29440.14	0.12334	1769232.0	1334545.0	677946.0	0.281955	0.677278
     29440.63	0.12774	1853664.0	1398141.0	710340.0	0.282021	0.677155
     29441.13	0.10373	1469407.0	1108606.0	563379.0	0.281756	0.676906
     29441.63	0.12325	1749176.0	1319388.0	670836.0	0.281977	0.676399
     29442.13	0.12513	1798093.0	1356563.0	689598.0	0.281772	0.676601
     29442.63	0.12841	1804289.0	1361126.0	692168.0	0.281854	0.676239
     29443.13	0.13284	1875435.0	1414407.0	720073.0	0.282130	0.675113
     29443.63	0.13100	1859192.0	1402257.0	713684.0	0.282059	0.675398
     29444.12	0.12086	1712555.0	1291742.0	657795.0	0.281995	0.674854
     29444.62	0.13697	1875897.0	1415720.0	721205.0	0.281449	0.674470
     29445.12	0.12702	1806456.0	1363056.0	694477.0	0.281638	0.674325
     29445.62	0.11967	1693461.0	1277915.0	651551.0	0.281545	0.673629
     29446.12	0.12357	1733284.0	1308005.0	667003.0	0.281515	0.673464
     29446.62	0.13297	1866833.0	1409034.0	718756.0	0.281339	0.673138
     29447.12	0.12021	1699854.0	1282811.0	654764.0	0.281489	0.672534
     29447.62	0.12994	1822951.0	1376097.0	702585.0	0.281205	0.672240
     29448.11	0.11539	1630304.0	1230426.0	628551.0	0.281406	0.671699
     29448.61	0.13190	1842394.0	1390346.0	710657.0	0.281513	0.671118
     29449.11	0.13087	1855464.0	1400678.0	715680.0	0.281178	0.671479
     29449.61	0.12684	1787262.0	1349251.0	689670.0	0.281135	0.671092
     29450.11	0.12918	1821901.0	1374958.0	703274.0	0.281457	0.670432
     29450.61	0.12757	1782631.0	1346178.0	689155.0	0.280821	0.669559
     29451.11	0.14246	2010647.0	1517640.0	776972.0	0.281300	0.669507
     29451.61	0.12767	1788387.0	1350388.0	691629.0	0.280922	0.669098
     29452.10	0.12331	1733488.0	1308512.0	670469.0	0.281245	0.668668
     29452.60	0.12670	1797807.0	1357485.0	695606.0	0.280934	0.668606
     29453.10	0.12881	1824465.0	1377306.0	706009.0	0.281157	0.668257
     29453.60	0.12118	1718699.0	1297771.0	665594.0	0.280919	0.667724
     29454.10	0.13064	1845103.0	1393182.0	715212.0	0.280945	0.666767
     29454.60	0.12162	1726467.0	1303691.0	669023.0	0.280878	0.667136
     29455.10	0.13307	1881578.0	1420895.0	729822.0	0.280824	0.666242
     29455.60	0.12524	1753175.0	1323724.0	680117.0	0.280979	0.665939
     29456.10	0.11610	1613370.0	1218266.0	626340.0	0.280897	0.665290
     29456.59	0.12649	1715468.0	1295733.0	666235.0	0.280609	0.665189
     29457.09	0.12165	1698745.0	1282945.0	659852.0	0.280732	0.664898
     29457.59	0.11143	1533201.0	1158333.0	595737.0	0.280376	0.664938
     29458.09	0.12277	1702270.0	1285776.0	661676.0	0.280600	0.664342
     29458.59	0.12663	1757562.0	1327871.0	683709.0	0.280351	0.663800
     29459.09	0.12737	1745744.0	1319008.0	679452.0	0.280301	0.663349
     29459.59	0.10897	1528409.0	1154570.0	594901.0	0.280499	0.663088
     29460.09	0.10137	1416615.0	1070322.0	551646.0	0.280311	0.662808
     29460.59	0.12120	1658984.0	1253545.0	646420.0	0.280230	0.662281
     29461.09	0.10443	1453469.0	1098453.0	566551.0	0.280050	0.662091
     29461.59	0.13078	1821515.0	1376295.0	710132.0	0.280273	0.661700
     29462.09	0.12318	1721909.0	1301321.0	671761.0	0.280054	0.661233
     29462.58	0.14257	1991764.0	1505024.0	776982.0	0.280212	0.661147
     29463.08	0.14016	1972564.0	1490826.0	769857.0	0.280004	0.660881
     29463.58	0.12581	1761171.0	1331059.0	687496.0	0.280004	0.660674
     29464.08	0.10844	1517280.0	1146798.0	592880.0	0.279946	0.659737
     29464.58	0.13839	1944318.0	1469574.0	759770.0	0.279939	0.659712
     29465.08	0.12876	1804214.0	1363770.0	705194.0	0.279872	0.659535
     29465.58	0.12931	1816674.0	1373147.0	710145.0	0.279902	0.659391
     29466.08	0.12213	1682882.0	1272168.0	658417.0	0.279785	0.658639
     29466.58	0.14376	1995136.0	1508786.0	780679.0	0.279407	0.658897
     29467.08	0.18321	2557453.0	1933587.0	1000581.0	0.279635	0.658796
     29467.58	0.094158	1305726.0	987561.0	511176.0	0.279276	0.658524
     29468.08	0.10688	1508768.0	1140364.0	590755.0	0.279946	0.657701
     29468.58	0.11714	1644585.0	1243967.0	644126.0	0.279183	0.658166
     29469.08	0.14029	1950124.0	1475019.0	764295.0	0.279222	0.657472
     29469.58	0.13522	1901143.0	1437248.0	745164.0	0.279725	0.656881
     29470.07	0.13360	1876186.0	1419117.0	735753.0	0.279206	0.656896
     29470.57	0.13896	1922686.0	1454616.0	754422.0	0.278981	0.656545
     29471.07	0.14890	2067614.0	1563978.0	811332.0	0.279163	0.656311
     29471.57	0.10640	1467650.0	1110364.0	575979.0	0.278975	0.656372
     29472.07	0.12858	1787572.0	1352564.0	701699.0	0.278856	0.656253
     29472.57	0.13224	1827419.0	1382566.0	717448.0	0.278963	0.655996
     29473.07	0.12638	1757555.0	1329411.0	690178.0	0.279188	0.655542
     29473.57	0.12005	1688672.0	1277416.0	663220.0	0.279103	0.655488
     29474.07	0.13442	1868936.0	1414203.0	734025.0	0.278803	0.655778
     29474.57	0.14151	1995431.0	1509655.0	783669.0	0.278979	0.655650
     29475.07	0.12589	1728462.0	1307999.0	679318.0	0.278734	0.655164
     29475.57	0.10155	1410625.0	1067419.0	554136.0	0.278789	0.655589
     29476.07	0.12022	1686901.0	1276862.0	663047.0	0.278488	0.655315
     29476.57	0.13165	1823917.0	1380550.0	717061.0	0.278504	0.655076
     29477.07	0.12171	1696026.0	1283525.0	666877.0	0.278678	0.654760
     29477.57	0.12339	1707693.0	1292740.0	671644.0	0.278379	0.654791
     29478.07	0.13545	1870301.0	1415968.0	735291.0	0.278286	0.655302
     29478.57	0.11082	1532456.0	1160276.0	602745.0	0.278214	0.654919
     29479.07	0.12100	1653305.0	1251917.0	650627.0	0.278100	0.654495
     29479.57	0.12103	1679228.0	1271041.0	660339.0	0.278498	0.654838
     29480.07	0.11560	1607609.0	1217149.0	632501.0	0.278237	0.654585
     29480.57	0.11634	1629273.0	1233877.0	641109.0	0.277973	0.654717
     29481.07	0.12041	1648665.0	1248456.0	648787.0	0.278058	0.654558
     29481.57	0.13420	1857478.0	1406580.0	731176.0	0.278058	0.654262
     29482.07	0.11765	1628310.0	1233276.0	640672.0	0.277869	0.654912
     29482.57	0.15583	2181069.0	1651767.0	858304.0	0.277969	0.654643
     29483.07	0.11433	1593631.0	1206659.0	627053.0	0.278160	0.654580
     29483.57	0.11859	1665524.0	1261413.0	655246.0	0.277907	0.654977
     29484.07	0.12430	1745778.0	1322398.0	686982.0	0.277754	0.654894
     29484.57	0.14699	2046097.0	1549795.0	805256.0	0.277811	0.654718
     29485.07	0.11684	1630261.0	1235306.0	641937.0	0.277421	0.654584
     29485.57	0.12502	1738376.0	1317100.0	684366.0	0.277519	0.654695
     29486.07	0.12278	1717172.0	1300993.0	675882.0	0.277551	0.654865
     29486.57	0.14535	2036429.0	1543111.0	801627.0	0.277397	0.654912
     29487.07	0.11428	1584884.0	1201376.0	624026.0	0.277044	0.655031
     29487.57	0.11359	1585518.0	1201222.0	624244.0	0.277572	0.654553
     29488.07	0.12820	1794195.0	1359698.0	706453.0	0.277294	0.654761
     29488.57	0.12124	1708572.0	1294441.0	672806.0	0.277579	0.654377
     29489.07	0.13459	1844137.0	1397765.0	726425.0	0.277137	0.654495
     29489.57	0.14046	1938683.0	1469689.0	763788.0	0.276958	0.654516
     29490.07	0.14090	1939117.0	1469984.0	763612.0	0.276981	0.654947
     29490.57	0.13918	1947301.0	1475963.0	766978.0	0.277134	0.654608
     29491.07	0.10915	1507447.0	1142719.0	593744.0	0.277007	0.654718
     29491.57	0.10938	1509838.0	1144412.0	594578.0	0.277111	0.654794
     29492.07	0.12781	1789699.0	1357080.0	704765.0	0.276712	0.655226
     29492.57	0.13484	1851525.0	1403554.0	728889.0	0.277002	0.655241
     29493.07	0.12816	1796564.0	1361969.0	707209.0	0.276945	0.655360
     29493.57	0.12917	1776632.0	1346998.0	699569.0	0.276841	0.655169
     29494.07	0.13371	1857056.0	1407773.0	731170.0	0.276983	0.655118
     29494.57	0.10925	1517509.0	1150859.0	597846.0	0.276562	0.654931
     29495.07	0.11397	1561963.0	1184290.0	615155.0	0.276800	0.655024
     29495.57	0.14035	1930622.0	1464342.0	760571.0	0.276436	0.655092
     29496.07	0.11783	1606974.0	1218912.0	632896.0	0.276394	0.655408
     29496.57	0.11493	1580697.0	1199186.0	622807.0	0.276223	0.655162
     29497.07	0.13172	1768676.0	1341329.0	696833.0	0.276570	0.654870
     29497.57	0.12598	1720157.0	1304592.0	677930.0	0.276525	0.654602
     29498.07	0.12378	1683084.0	1276828.0	662991.0	0.276249	0.655373
     29498.57	0.10465	1419298.0	1076519.0	559197.0	0.276430	0.654986
     29499.07	0.092960	1286121.0	975460.0	506571.0	0.276477	0.655245
     29499.57	0.12406	1706144.0	1294460.0	672580.0	0.276142	0.654728
     29500.07	0.11820	1606956.0	1219396.0	633455.0	0.275986	0.654922
     29500.58	0.12276	1704118.0	1293103.0	671729.0	0.276003	0.654945
     29501.08	0.13427	1833425.0	1390971.0	723085.0	0.276184	0.654231
     29501.58	0.11749	1572316.0	1193091.0	620084.0	0.276002	0.654448
     29502.08	0.12566	1699570.0	1289569.0	669948.0	0.276067	0.654863
     29502.58	0.13868	1878703.0	1425742.0	740872.0	0.275889	0.654620
     29503.08	0.10963	1500015.0	1138320.0	591650.0	0.275922	0.654394
     29503.58	0.14164	1948201.0	1478534.0	767978.0	0.275855	0.655045
     29504.08	0.12887	1745857.0	1325350.0	689181.0	0.275569	0.653928
     29504.58	0.13434	1853148.0	1406906.0	731178.0	0.275493	0.654491
     29505.08	0.13427	1819366.0	1380822.0	717955.0	0.275809	0.654027
     29505.58	0.15530	2118840.0	1608039.0	836003.0	0.275853	0.654139
     29506.08	0.13931	1894810.0	1438350.0	747688.0	0.275622	0.654266
     29506.58	0.086420	1147636.0	870927.0	452952.0	0.275901	0.653772
     29507.08	0.14243	1906131.0	1447033.0	752406.0	0.275560	0.653994
     29507.58	0.11486	1563123.0	1186506.0	617187.0	0.275673	0.653596
     29508.09	0.12726	1709877.0	1298351.0	675470.0	0.275326	0.653442
     29508.59	0.16765	2263076.0	1717726.0	893609.0	0.275724	0.653488
     29509.09	0.14561	1948051.0	1479170.0	770139.0	0.275348	0.652665
     29509.59	0.18090	2441070.0	1852958.0	964463.0	0.275653	0.652967
     29510.09	0.10126	1361084.0	1033255.0	538009.0	0.275567	0.652594
     29510.59	0.064091	860772.0	653630.0	340252.0	0.275288	0.652855
     29511.09	0.13554	1839605.0	1396562.0	727358.0	0.275537	0.652350
     29511.59	0.13208	1818256.0	1380686.0	718989.0	0.275297	0.652490
     29512.09	0.12564	1695980.0	1287498.0	670398.0	0.275560	0.652585
     29512.59	0.12352	1660447.0	1260819.0	656927.0	0.275325	0.651944
     29513.09	0.13280	1736041.0	1318410.0	686873.0	0.275181	0.652032
     29513.60	0.12662	1700008.0	1291282.0	672918.0	0.274997	0.651767
     29514.10	0.12260	1643753.0	1248427.0	650687.0	0.275098	0.651611
     29514.60	0.12085	1607743.0	1221026.0	636563.0	0.275140	0.651363
     29515.10	0.13199	1739913.0	1321548.0	688922.0	0.275031	0.651431
     29515.60	0.12557	1660894.0	1261415.0	658137.0	0.275122	0.650576
     29516.10	0.11978	1651197.0	1254343.0	654174.0	0.274889	0.650994
     29516.60	0.12377	1680040.0	1275952.0	666020.0	0.275125	0.650128
     29517.10	0.12343	1666202.0	1265378.0	660402.0	0.275176	0.650277
     29517.60	0.11566	1550635.0	1177890.0	614972.0	0.274940	0.649903
     29518.10	0.11902	1605732.0	1219688.0	636888.0	0.274985	0.649757
     29518.61	0.12285	1637534.0	1243903.0	649632.0	0.274937	0.649603
     29519.11	0.11343	1542124.0	1171852.0	612378.0	0.274575	0.648991
     29519.61	0.11935	1609771.0	1222728.0	638875.0	0.275008	0.649131
     29520.11	0.11982	1617160.0	1228530.0	642111.0	0.274853	0.648812
     29520.61	0.12706	1722192.0	1308499.0	684199.0	0.274717	0.648387
     29521.11	0.13153	1796032.0	1364530.0	713216.0	0.274770	0.648781
     29521.61	0.12604	1720537.0	1307259.0	683686.0	0.274704	0.648189
     29522.11	0.12572	1710240.0	1299558.0	680106.0	0.274610	0.647531
     29522.62	0.13345	1805429.0	1371810.0	718002.0	0.274667	0.647414
     29523.12	0.13782	1869238.0	1420269.0	743431.0	0.274685	0.647326
     29523.62	0.13168	1772934.0	1346982.0	705298.0	0.274769	0.647001
     29524.12	0.13483	1821177.0	1383856.0	724813.0	0.274609	0.646715
     29524.62	0.11231	1514186.0	1150876.0	602619.0	0.274355	0.646994
     29525.12	0.12009	1607780.0	1221958.0	640388.0	0.274400	0.646136
     29525.62	0.11896	1616848.0	1228900.0	644030.0	0.274359	0.646129
     29526.12	0.12381	1692920.0	1286195.0	674077.0	0.274767	0.646099
     29526.63	0.12720	1743957.0	1324870.0	695017.0	0.274842	0.645133
     29527.13	0.12739	1726822.0	1312616.0	688595.0	0.274261	0.645124
     29527.63	0.12920	1761204.0	1338507.0	702623.0	0.274443	0.644490
     29528.13	0.13878	1903659.0	1447219.0	759396.0	0.274134	0.644876
     29528.63	0.12732	1727258.0	1312779.0	689105.0	0.274389	0.644508
     29529.13	0.13382	1835803.0	1395603.0	732857.0	0.274155	0.644131
     29529.64	0.11776	1602077.0	1218214.0	640152.0	0.273915	0.643435
     29530.14	0.13917	1840490.0	1399515.0	735617.0	0.273906	0.643171
     29530.64	0.11576	1591006.0	1209304.0	635788.0	0.274322	0.642935
     29531.14	0.13161	1775208.0	1349666.0	709773.0	0.274060	0.642667
     29531.64	0.12907	1761622.0	1339282.0	704421.0	0.274101	0.642513
     29532.14	0.12898	1759776.0	1337654.0	703999.0	0.274269	0.641896
     29532.64	0.11589	1576395.0	1197999.0	630467.0	0.274488	0.641947
     29533.15	0.12467	1683518.0	1280044.0	674076.0	0.273991	0.641307
     29533.65	0.14011	1887970.0	1435554.0	756116.0	0.273951	0.641111
     29534.15	0.11504	1566090.0	1190698.0	627305.0	0.274042	0.640862
     29534.65	0.12398	1658364.0	1261277.0	664541.0	0.273707	0.640783
     29535.15	0.12112	1642922.0	1248866.0	658268.0	0.274240	0.640379
     29535.65	0.11362	1528440.0	1162429.0	612749.0	0.273736	0.640312
     29536.16	0.11928	1586572.0	1206526.0	636449.0	0.273831	0.639596
     29536.66	0.12086	1639452.0	1246683.0	657588.0	0.273876	0.639663
     29537.16	0.10833	1469966.0	1117761.0	589758.0	0.273912	0.639371
     29537.66	0.11528	1562851.0	1188318.0	627383.0	0.273973	0.638737
     29538.16	0.11520	1550116.0	1178733.0	622578.0	0.273890	0.638326
     29538.67	0.11857	1612072.0	1226163.0	647901.0	0.273631	0.637907
     29539.17	0.11394	1549833.0	1178809.0	622870.0	0.273643	0.637922
     29539.67	0.13296	1802669.0	1370678.0	724451.0	0.273963	0.637647
     29540.17	0.13871	1857973.0	1413183.0	746813.0	0.273642	0.637785
     29540.67	0.10571	1426914.0	1085282.0	573714.0	0.273674	0.637464
     29541.17	0.13010	1757358.0	1336703.0	707083.0	0.273605	0.636813
     29541.68	0.13254	1821021.0	1385362.0	732907.0	0.273436	0.636698
     29542.18	0.12968	1728955.0	1315004.0	695898.0	0.273677	0.636392
     29542.68	0.12817	1718637.0	1307577.0	692375.0	0.273356	0.635803
     29543.18	0.14142	1862937.0	1417326.0	750302.0	0.273382	0.636051
     29543.68	0.12202	1670155.0	1270488.0	672610.0	0.273515	0.635991
     29544.19	0.13852	1864948.0	1418810.0	751603.0	0.273415	0.635366
     29544.69	0.12946	1757105.0	1336726.0	708077.0	0.273444	0.635426
     29545.19	0.11545	1564554.0	1190347.0	630846.0	0.273356	0.634938
     29545.69	0.12759	1729938.0	1316480.0	697658.0	0.273124	0.634988
     29546.19	0.13565	1844303.0	1403326.0	744060.0	0.273256	0.634479
     29546.70	0.14164	1953873.0	1486906.0	788344.0	0.273116	0.634518
     29547.20	0.12731	1758682.0	1338207.0	709804.0	0.273234	0.634097
     29547.70	0.14147	1933647.0	1471398.0	780663.0	0.273195	0.633825
     29548.20	0.14134	1945481.0	1480620.0	785506.0	0.273048	0.633888
     29548.71	0.11347	1571894.0	1196288.0	634862.0	0.273058	0.633571
     29549.21	0.12869	1757312.0	1337472.0	709800.0	0.273004	0.633553
     29549.71	0.13448	1857291.0	1413667.0	750586.0	0.272932	0.633088
     29550.21	0.12694	1756880.0	1337077.0	709947.0	0.273054	0.633051
     29550.71	0.12491	1725305.0	1313466.0	697544.0	0.272734	0.632859
     29551.22	0.12725	1731798.0	1318045.0	700221.0	0.273011	0.632509
     29551.72	0.12710	1750784.0	1332575.0	707889.0	0.272951	0.632581
     29552.22	0.11462	1559229.0	1186643.0	630589.0	0.273063	0.632229
     29552.72	0.12706	1760885.0	1340532.0	712277.0	0.272750	0.632355
     29553.23	0.13319	1806598.0	1375012.0	730980.0	0.272983	0.631832
     29553.73	0.12279	1674532.0	1274805.0	677651.0	0.272740	0.631916
     29554.23	0.12950	1750780.0	1332810.0	708850.0	0.272772	0.631401
     29554.73	0.12224	1653932.0	1259355.0	669668.0	0.272556	0.631573
     29555.24	0.11686	1565720.0	1192411.0	634133.0	0.272368	0.631474
     29555.74	0.12031	1620362.0	1233893.0	656377.0	0.272475	0.631194
     29556.24	0.12980	1781931.0	1356943.0	722051.0	0.272463	0.630894
     29556.74	0.11776	1633053.0	1243511.0	661638.0	0.272512	0.630976
     29557.24	0.12110	1655767.0	1260915.0	671013.0	0.272427	0.630804
     29557.75	0.12518	1699016.0	1293945.0	688743.0	0.272354	0.630583
     29558.25	0.12474	1697687.0	1293072.0	688192.0	0.272246	0.630708
     29558.75	0.11953	1647912.0	1255114.0	668249.0	0.272283	0.630321
     29559.26	0.12417	1696329.0	1292108.0	687827.0	0.272192	0.630493
     29559.76	0.13831	1882496.0	1433928.0	763524.0	0.272181	0.630228
     29560.26	0.10428	1407380.0	1072314.0	571122.0	0.271911	0.629971
     29560.76	0.12708	1719061.0	1309548.0	697360.0	0.272096	0.630136
     29561.27	0.13574	1851504.0	1410351.0	750947.0	0.272160	0.630259
     29561.77	0.12824	1722631.0	1312782.0	698921.0	0.271704	0.630366
     29562.27	0.13296	1812595.0	1380792.0	735383.0	0.272102	0.630021
     29562.77	0.13165	1775997.0	1353503.0	721113.0	0.271666	0.629655
     29563.28	0.14934	2033341.0	1549406.0	825433.0	0.271809	0.629719
     29563.78	0.12644	1698782.0	1294604.0	689685.0	0.271707	0.629725
     29564.28	0.11253	1514214.0	1153701.0	614485.0	0.271921	0.629946
     29564.78	0.096285	1306716.0	995679.0	530712.0	0.271847	0.629205
     29565.29	0.12100	1649320.0	1257070.0	669606.0	0.271579	0.629849
     29565.79	0.13378	1839181.0	1401368.0	746992.0	0.271871	0.629150
     29566.29	0.13072	1767834.0	1347252.0	717967.0	0.271688	0.629399
     29566.80	0.13524	1810103.0	1379661.0	735446.0	0.271546	0.629116
     29567.30	0.16892	2303767.0	1755842.0	935905.0	0.271597	0.629190
     29567.80	0.10500	1412627.0	1076870.0	573652.0	0.271392	0.629791
     29568.30	0.099978	1348991.0	1028814.0	548312.0	0.270950	0.629317
     29568.81	0.13813	1872752.0	1427712.0	761277.0	0.271336	0.628831
     29569.31	0.12088	1621894.0	1236231.0	659218.0	0.271527	0.628768
     29569.81	0.13180	1751892.0	1335986.0	712422.0	0.271027	0.628754
     29570.32	0.13455	1807695.0	1377881.0	734915.0	0.271506	0.628547
     29570.82	0.13169	1768663.0	1348206.0	718977.0	0.271449	0.628701
     29571.32	0.12412	1662173.0	1267417.0	675722.0	0.271145	0.628955
     29571.82	0.13726	1857556.0	1416591.0	755521.0	0.271008	0.628601
     29572.33	0.11030	1476679.0	1126226.0	600421.0	0.270923	0.628996
     29572.83	0.12185	1633067.0	1245518.0	664333.0	0.270908	0.628523
     29573.33	0.12257	1656788.0	1263199.0	673752.0	0.271233	0.628541
     29573.84	0.12666	1714306.0	1307260.0	697435.0	0.271075	0.628279
     29574.34	0.11981	1593862.0	1215572.0	648730.0	0.270945	0.627953
     29574.84	0.12986	1767186.0	1347228.0	718461.0	0.271339	0.628693
     29575.35	0.11619	1565941.0	1194597.0	637379.0	0.270678	0.628200
     29575.85	0.11133	1507989.0	1150273.0	613876.0	0.270778	0.627962
     29576.35	0.11856	1612750.0	1230132.0	656297.0	0.270819	0.628263
     29576.85	0.11498	1569340.0	1196875.0	638874.0	0.270941	0.627762
     29577.36	0.10808	1479060.0	1128172.0	601715.0	0.270808	0.628570
     29577.86	0.12709	1748782.0	1333777.0	711661.0	0.270905	0.628168
     29578.36	0.11413	1575254.0	1201572.0	641285.0	0.270786	0.627912
     29578.87	0.12340	1670677.0	1274410.0	680275.0	0.270746	0.627741
     29579.37	0.11998	1647903.0	1257692.0	671094.0	0.270225	0.628124
     29579.87	0.14970	2074358.0	1582391.0	844894.0	0.270715	0.627481
     29580.38	0.11739	1608006.0	1226858.0	654864.0	0.270538	0.627784
     29580.88	0.11097	1522318.0	1161320.0	619800.0	0.270677	0.627916
     29581.38	0.12676	1758718.0	1341974.0	715996.0	0.270443	0.628222
     29581.89	0.14298	1960735.0	1495994.0	798544.0	0.270529	0.627756
     29582.39	0.12478	1727331.0	1318174.0	703778.0	0.270330	0.627540
     29582.89	0.12590	1739944.0	1327836.0	709146.0	0.270302	0.627244
     29583.40	0.14428	1982661.0	1513036.0	807813.0	0.270322	0.627543
     29583.90	0.12458	1739456.0	1327813.0	708936.0	0.270039	0.627523
     29584.40	0.11581	1604393.0	1223836.0	653726.0	0.270755	0.627057
     29584.91	0.12338	1696747.0	1295117.0	691613.0	0.270112	0.627330
     29585.41	0.13538	1885791.0	1439002.0	768463.0	0.270398	0.627313
     29585.91	0.12294	1669780.0	1274470.0	680830.0	0.270161	0.626973
     29586.42	0.13704	1895113.0	1446579.0	772876.0	0.270077	0.626838
     29586.92	0.14321	2000278.0	1527050.0	815718.0	0.269948	0.627024
     29587.42	0.12438	1714279.0	1308323.0	699081.0	0.270246	0.626735
     29587.93	0.14949	2065181.0	1576656.0	842361.0	0.269912	0.626853
     29588.43	0.12507	1727651.0	1319114.0	704854.0	0.269802	0.626725
     29588.93	0.11863	1646331.0	1256984.0	671769.0	0.269834	0.626556
     29589.44	0.13448	1813312.0	1384544.0	740105.0	0.269784	0.626334
     29589.94	0.12574	1750018.0	1336533.0	714306.0	0.269547	0.626523
     29590.45	0.12410	1695377.0	1294852.0	692176.0	0.269509	0.626311
     29590.95	0.14236	1947379.0	1487071.0	794798.0	0.269676	0.626476
     29591.45	0.12423	1715763.0	1310253.0	700460.0	0.269638	0.626238
     29591.96	0.11674	1603880.0	1224686.0	655101.0	0.269741	0.625650
     29592.46	0.12248	1678438.0	1281952.0	685406.0	0.269480	0.626128
     29592.96	0.11766	1625526.0	1241497.0	663743.0	0.269514	0.626178
     29593.47	0.13121	1800867.0	1374853.0	735314.0	0.269921	0.625804
     29593.97	0.12458	1704439.0	1301918.0	696215.0	0.269397	0.625935
     29594.48	0.13053	1797642.0	1372967.0	734941.0	0.269502	0.624939
     29594.98	0.12904	1755100.0	1340511.0	717067.0	0.269475	0.625637
     29595.48	0.12245	1719487.0	1313695.0	703188.0	0.269182	0.624975
     29595.99	0.11872	1635453.0	1249376.0	668663.0	0.269276	0.625119
     29596.49	0.11938	1647851.0	1258964.0	674051.0	0.269183	0.624739
     29596.99	0.11705	1610872.0	1230703.0	658747.0	0.269190	0.625001
     29597.50	0.11621	1617201.0	1235436.0	661259.0	0.269273	0.625034
     29598.00	0.13388	1886075.0	1440765.0	771563.0	0.269324	0.624511
     29598.51	0.12660	1765885.0	1349285.0	722611.0	0.269077	0.624459
     29599.01	0.10606	1459018.0	1114697.0	597142.0	0.269181	0.624183
     29599.51	0.12701	1736915.0	1327123.0	711335.0	0.269097	0.623625
     29600.02	0.13050	1795484.0	1372243.0	735111.0	0.268828	0.624180
     29600.52	0.12631	1748076.0	1335728.0	715573.0	0.269039	0.624148
     29601.03	0.13199	1831299.0	1399397.0	749997.0	0.268984	0.623728
     29601.53	0.13449	1858658.0	1420422.0	761465.0	0.268901	0.623465
     29602.03	0.13027	1806943.0	1380886.0	740397.0	0.268911	0.623294
     29602.54	0.12963	1777769.0	1358881.0	728981.0	0.268698	0.622769
     29603.04	0.11897	1646696.0	1258781.0	675015.0	0.268627	0.623164
     29603.55	0.12236	1662813.0	1271218.0	681952.0	0.268535	0.622772
     29604.05	0.11913	1629469.0	1245689.0	668755.0	0.268565	0.622026
     29604.55	0.12607	1736355.0	1327186.0	712149.0	0.268727	0.622529
     29605.06	0.12830	1750440.0	1338005.0	718092.0	0.268687	0.622337
     29605.56	0.12376	1718974.0	1314094.0	705385.0	0.268580	0.622159
     29606.07	0.13449	1838141.0	1405216.0	754619.0	0.268564	0.621733
     29606.57	0.12644	1724663.0	1318690.0	707883.0	0.268393	0.622115
     29607.07	0.13385	1821346.0	1392553.0	747989.0	0.268437	0.621506
     29607.58	0.12974	1770956.0	1354468.0	727772.0	0.268111	0.621176
     29608.08	0.11748	1593986.0	1218993.0	655084.0	0.268213	0.621017
     29608.59	0.13732	1885757.0	1442108.0	775046.0	0.268223	0.620939
     29609.09	0.12042	1630327.0	1246959.0	670037.0	0.268073	0.621130
     29609.60	0.13383	1844260.0	1410198.0	758053.0	0.268348	0.620732
     29610.10	0.13604	1833618.0	1402246.0	754171.0	0.268216	0.620211
     29610.60	0.12089	1664802.0	1272820.0	684716.0	0.268471	0.619986
     29611.11	0.12225	1670719.0	1277749.0	687635.0	0.268154	0.619597
     29611.61	0.13522	1856709.0	1420001.0	763888.0	0.268148	0.619992
     29612.12	0.11921	1632900.0	1248892.0	671760.0	0.268101	0.620111
     29612.62	0.12105	1634885.0	1250561.0	673137.0	0.267980	0.619399
     29613.13	0.13136	1776960.0	1358972.0	731685.0	0.268176	0.619134
     29613.63	0.12847	1756835.0	1344037.0	723836.0	0.267836	0.618868
     29614.13	0.12085	1616813.0	1236974.0	666175.0	0.267789	0.618871
     29614.64	0.11672	1590373.0	1216608.0	655340.0	0.267902	0.618668
     29615.14	0.12924	1758114.0	1344952.0	724601.0	0.267883	0.618492
     29615.65	0.11795	1584521.0	1212421.0	653362.0	0.267663	0.618243
     29616.15	0.11884	1590336.0	1216746.0	656061.0	0.267765	0.617682
     29616.66	0.10244	1378003.0	1054631.0	568529.0	0.267444	0.617894
     29617.16	0.12147	1624902.0	1243608.0	670816.0	0.267431	0.617277
     29617.67	0.10992	1478354.0	1131503.0	610237.0	0.267382	0.617455
     29618.17	0.12139	1625395.0	1243688.0	670948.0	0.267670	0.617145
     29618.68	0.11872	1575153.0	1205894.0	650640.0	0.267131	0.617020
     29619.18	0.12104	1606202.0	1229248.0	663604.0	0.267470	0.616472
     29619.68	0.11189	1484228.0	1136302.0	613521.0	0.267116	0.616320
     29620.19	0.11964	1596298.0	1221476.0	659379.0	0.267627	0.616517
     29620.69	0.14383	1934046.0	1480259.0	799251.0	0.267397	0.616297
     29621.20	0.12103	1587537.0	1215280.0	656563.0	0.267209	0.615711
     29621.70	0.13627	1849625.0	1415708.0	764993.0	0.267353	0.615518
     29622.21	0.12963	1737550.0	1330180.0	718992.0	0.267162	0.615219
     29622.71	0.12603	1679555.0	1285946.0	695033.0	0.267034	0.615291
     29623.22	0.13481	1807084.0	1383481.0	747851.0	0.267112	0.615154
     29623.72	0.13406	1797015.0	1375971.0	744028.0	0.266967	0.614836
     29624.23	0.12640	1702388.0	1303443.0	705295.0	0.267023	0.614148
     29624.73	0.12560	1652680.0	1265644.0	684635.0	0.266817	0.614451
     29625.24	0.12053	1577469.0	1208079.0	653488.0	0.266790	0.614463
     29625.74	0.12739	1689482.0	1293795.0	700123.0	0.266842	0.614079
     29626.25	0.14170	1896876.0	1452587.0	786195.0	0.266862	0.613897
     29626.75	0.12425	1653262.0	1266238.0	685555.0	0.266700	0.613577
     29627.26	0.14110	1827498.0	1399481.0	758042.0	0.266846	0.613118
     29627.76	0.13542	1794763.0	1374653.0	744439.0	0.266672	0.613326
     29628.27	0.11842	1549380.0	1186848.0	643132.0	0.266554	0.612706
     29628.77	0.12482	1641605.0	1257269.0	681075.0	0.266733	0.613025
     29629.28	0.13550	1802167.0	1379961.0	747974.0	0.266935	0.612442
     29629.78	0.13074	1731476.0	1326346.0	719239.0	0.266546	0.611989
     29630.28	0.13867	1873692.0	1434773.0	778190.0	0.266904	0.611791
     29630.79	0.12578	1687532.0	1292886.0	701208.0	0.266390	0.611828
     29631.29	0.12948	1683149.0	1289433.0	699348.0	0.266464	0.611809
     29631.80	0.12198	1612876.0	1235514.0	670493.0	0.266532	0.611229
     29632.31	0.12401	1621418.0	1242281.0	674343.0	0.266352	0.610966
     29632.81	0.12312	1609689.0	1233544.0	669471.0	0.266150	0.611159
     29633.32	0.12406	1637817.0	1254740.0	681138.0	0.266436	0.610919
     29633.82	0.12731	1663577.0	1274716.0	691996.0	0.266247	0.610899
     29634.33	0.12774	1675638.0	1283821.0	697198.0	0.266353	0.610527
     29634.83	0.12641	1613728.0	1236664.0	671878.0	0.266130	0.610096
     29635.34	0.11736	1525381.0	1168993.0	634980.0	0.266102	0.610304
     29635.84	0.13262	1721403.0	1319060.0	717067.0	0.266220	0.609505
     29636.35	0.11543	1512899.0	1159494.0	630125.0	0.266044	0.609821
     29636.85	0.12352	1638339.0	1255813.0	682665.0	0.265900	0.609534
     29637.36	0.12200	1590588.0	1219637.0	663018.0	0.265550	0.609506
     29637.86	0.11724	1515236.0	1161543.0	631393.0	0.265822	0.609576
     29638.37	0.12207	1575076.0	1207228.0	656811.0	0.265977	0.608686
     29638.87	0.12413	1617896.0	1239836.0	674332.0	0.266147	0.609012
     29639.38	0.11833	1566896.0	1201327.0	653429.0	0.265670	0.608948
     29639.88	0.12847	1668078.0	1279100.0	695937.0	0.265515	0.608653
     29640.39	0.12266	1587959.0	1217739.0	662613.0	0.265454	0.608560
     29640.89	0.12480	1587898.0	1217756.0	663054.0	0.265401	0.607909
     29641.40	0.11194	1443324.0	1106559.0	602492.0	0.265694	0.607936
     29641.90	0.13747	1792551.0	1374669.0	748497.0	0.265427	0.607901
     29642.41	0.13789	1753930.0	1344854.0	732335.0	0.265574	0.607803
     29642.91	0.13383	1769711.0	1356921.0	738706.0	0.265598	0.608073
     29643.42	0.12403	1601482.0	1228198.0	668976.0	0.265381	0.607555
     29643.93	0.12215	1587700.0	1217319.0	663200.0	0.265636	0.607330
     29644.43	0.13216	1712031.0	1313111.0	715173.0	0.265281	0.607630
     29644.94	0.11114	1465457.0	1123736.0	612218.0	0.265508	0.607326
     29645.44	0.12575	1602854.0	1229411.0	670470.0	0.265251	0.606312
     29645.95	0.12667	1605462.0	1231685.0	671431.0	0.265028	0.606727
     29646.45	0.13033	1687634.0	1294510.0	705639.0	0.265195	0.606784
     29646.96	0.12883	1673183.0	1283641.0	699736.0	0.265027	0.606753
     29647.46	0.11964	1612518.0	1236967.0	674478.0	0.265135	0.606479
     29647.97	0.13307	1778465.0	1364275.0	743957.0	0.265127	0.606395
     29648.48	0.13970	1834594.0	1407377.0	767475.0	0.265096	0.606377
     29648.98	0.11826	1559270.0	1196275.0	652451.0	0.265005	0.606232
     29649.49	0.12504	1632344.0	1251890.0	682972.0	0.265363	0.605956
     29649.99	0.12727	1640514.0	1258699.0	686742.0	0.264931	0.605875
     29650.50	0.13023	1727359.0	1325165.0	722990.0	0.265057	0.605897
     29651.00	0.12812	1696699.0	1301714.0	710188.0	0.265003	0.605907
     29651.51	0.13811	1826595.0	1401916.0	765183.0	0.264614	0.605480
     29652.02	0.12855	1681130.0	1290041.0	704033.0	0.264792	0.605604
     29652.52	0.15388	2023248.0	1552765.0	847979.0	0.264667	0.604937
     29653.03	0.10732	1401185.0	1075622.0	586888.0	0.264419	0.605820
     29653.53	0.12348	1618992.0	1242615.0	678449.0	0.264586	0.605164
     29654.04	0.10787	1412076.0	1083841.0	591851.0	0.264550	0.605012
     29654.54	0.12722	1694728.0	1300495.0	710074.0	0.264777	0.605131
     29655.05	0.12895	1685146.0	1293454.0	706275.0	0.264536	0.605067
     29655.56	0.13057	1702396.0	1306665.0	713197.0	0.264559	0.605476
     29656.06	0.12490	1602438.0	1230195.0	671837.0	0.264354	0.604912
     29656.57	0.15628	2021637.0	1552048.0	847623.0	0.264332	0.604895
     29657.07	0.093663	1204008.0	924483.0	505184.0	0.264177	0.604312
     29657.58	0.10423	1370087.0	1051513.0	574177.0	0.264644	0.605048
     29658.09	0.10773	1383515.0	1062260.0	580365.0	0.264229	0.604497
     29658.59	0.11011	1425950.0	1094785.0	598087.0	0.264280	0.604577
     29659.10	0.12087	1578695.0	1211885.0	662135.0	0.264422	0.604463
     29659.60	0.12409	1592635.0	1223002.0	668211.0	0.264081	0.604460
     29660.11	0.12964	1666758.0	1279843.0	699351.0	0.264143	0.604340
     29660.62	0.12296	1541416.0	1183747.0	646993.0	0.264017	0.604105
     29661.12	0.12223	1586360.0	1218206.0	665735.0	0.264063	0.604243
     29661.63	0.11440	1468081.0	1127605.0	616206.0	0.263860	0.604270
     29662.13	0.14277	1846973.0	1418397.0	775064.0	0.264021	0.604337
     29662.64	0.10920	1409208.0	1082524.0	591616.0	0.263732	0.604193
     29663.15	0.13838	1784948.0	1370809.0	749337.0	0.263988	0.603968
     29663.65	0.14078	1835822.0	1409610.0	770631.0	0.264179	0.603859
     29664.16	0.13362	1729437.0	1328402.0	726232.0	0.263819	0.603862
     29664.66	0.15558	2003208.0	1539045.0	842010.0	0.263588	0.603125
     29665.17	0.13376	1699732.0	1305674.0	714340.0	0.263751	0.603116
     29665.68	0.11212	1435850.0	1103053.0	603488.0	0.263675	0.603111
     29666.18	0.10709	1386808.0	1065261.0	582562.0	0.263785	0.603540
     29666.69	0.12035	1557594.0	1196340.0	654440.0	0.263875	0.603242
     29667.19	0.13048	1704489.0	1309209.0	716580.0	0.263842	0.602689
     29667.70	0.13169	1703637.0	1309233.0	716314.0	0.263324	0.603078
     29668.21	0.14718	1942330.0	1492582.0	816703.0	0.263381	0.602987
     29668.71	0.13832	1793979.0	1378404.0	754000.0	0.263510	0.603289
     29669.22	0.11333	1464764.0	1125547.0	616399.0	0.263425	0.602130
     29669.73	0.12773	1632639.0	1254618.0	686602.0	0.263367	0.602832
     29670.23	0.13569	1756151.0	1349576.0	738930.0	0.263334	0.602343
     29670.74	0.12617	1592528.0	1223779.0	669685.0	0.263379	0.602891
     29671.25	0.13100	1675603.0	1287518.0	704931.0	0.263457	0.602372
     29671.75	0.12892	1652830.0	1270573.0	695637.0	0.263021	0.602395
     29672.26	0.13041	1677663.0	1289401.0	706213.0	0.263224	0.602016
     29672.76	0.13307	1736725.0	1335044.0	731109.0	0.263037	0.602157
     29673.27	0.11455	1483014.0	1139793.0	624187.0	0.263230	0.602152
     29673.78	0.12382	1600886.0	1230417.0	673908.0	0.263204	0.602015
     29674.28	0.12361	1606636.0	1234846.0	676831.0	0.263196	0.601280
     29674.79	0.12077	1582013.0	1216345.0	666567.0	0.262848	0.601465
     29675.30	0.12865	1682830.0	1293503.0	708357.0	0.263123	0.602161
     29675.80	0.11876	1545639.0	1188187.0	651026.0	0.263009	0.601634
     29676.31	0.13129	1723771.0	1325357.0	726612.0	0.262832	0.601045
     29676.82	0.12183	1610026.0	1237722.0	678409.0	0.262978	0.601278
     29677.32	0.12250	1597335.0	1228553.0	673724.0	0.262500	0.600772
     29677.83	0.12531	1622533.0	1247395.0	683718.0	0.262931	0.601267
     29678.34	0.12058	1594035.0	1225575.0	671969.0	0.262858	0.600953
     29678.84	0.11630	1519259.0	1168235.0	640387.0	0.262729	0.601177
     29679.35	0.11842	1509953.0	1161296.0	636812.0	0.262542	0.600817
     29679.86	0.12197	1620975.0	1246587.0	683744.0	0.262618	0.600581
     29680.36	0.12862	1662726.0	1278760.0	701213.0	0.262568	0.600834
     29680.87	0.11886	1595056.0	1226407.0	672862.0	0.262820	0.600304
     29681.38	0.12772	1674749.0	1287781.0	706666.0	0.262743	0.600118
     29681.88	0.11335	1493376.0	1148335.0	629722.0	0.262726	0.600790
     29682.39	0.13413	1751106.0	1346456.0	738972.0	0.262772	0.599971
     29682.90	0.14163	1891098.0	1454249.0	797924.0	0.262668	0.600232
     29683.40	0.12254	1616544.0	1243137.0	682387.0	0.262653	0.599796
     29683.91	0.13200	1728863.0	1330120.0	729836.0	0.262195	0.600205
     29684.42	0.12421	1631390.0	1254894.0	688938.0	0.262381	0.599655
     29684.92	0.12639	1674983.0	1288398.0	707207.0	0.262403	0.599831
     29685.43	0.11703	1539018.0	1183375.0	649523.0	0.262774	0.599888
     29685.94	0.12442	1634126.0	1256868.0	690005.0	0.262485	0.599679
     29686.44	0.12373	1628948.0	1253207.0	687881.0	0.262229	0.599845
     29686.95	0.12651	1674611.0	1288147.0	707601.0	0.262376	0.599080
     29687.46	0.13117	1743498.0	1341556.0	736751.0	0.262063	0.599335
     29687.97	0.12850	1684768.0	1295771.0	711729.0	0.262522	0.599164
     29688.47	0.12072	1578739.0	1214243.0	667224.0	0.262506	0.598750
     29688.98	0.12781	1673850.0	1287987.0	707846.0	0.262046	0.598609
     29689.49	0.13350	1755161.0	1350620.0	742357.0	0.261997	0.598489
     29689.99	0.13459	1813604.0	1395082.0	766689.0	0.262363	0.598627
     29690.50	0.12690	1656504.0	1274751.0	700697.0	0.261958	0.598431
     29691.01	0.13186	1718471.0	1322188.0	726580.0	0.262147	0.598695
     29691.51	0.12197	1604435.0	1234975.0	678601.0	0.261721	0.598773
     29692.02	0.14287	1835119.0	1412437.0	776392.0	0.261793	0.598414
     29692.53	0.11985	1583933.0	1218803.0	670222.0	0.262042	0.598016
     29693.04	0.12168	1570520.0	1208757.0	664628.0	0.261814	0.598120
     29693.54	0.13006	1692128.0	1302307.0	716256.0	0.261850	0.597855
     29694.05	0.12175	1614296.0	1242880.0	683493.0	0.261468	0.597970
     29694.56	0.12750	1667940.0	1283838.0	706174.0	0.261735	0.597748
     29695.06	0.12660	1643054.0	1264647.0	695711.0	0.261764	0.597614
     29695.57	0.11800	1574337.0	1211453.0	666841.0	0.262014	0.597024
     29696.08	0.12479	1645972.0	1266920.0	697111.0	0.261742	0.597399
     29696.59	0.11284	1482207.0	1141173.0	628335.0	0.261476	0.596738
     29697.09	0.11104	1465027.0	1127606.0	620734.0	0.261777	0.596949
     29697.60	0.11883	1547684.0	1191297.0	656103.0	0.261717	0.596480
     29698.11	0.11517	1491085.0	1147966.0	632360.0	0.261512	0.596288
     29698.62	0.11996	1569917.0	1208613.0	665612.0	0.261549	0.596522
     29699.12	0.12473	1598144.0	1230655.0	677943.0	0.261296	0.596239
     29699.63	0.10656	1394585.0	1073577.0	591475.0	0.261601	0.596132
     29700.14	0.12094	1588438.0	1223124.0	673805.0	0.261343	0.596223
     29700.65	0.11457	1471038.0	1132587.0	624440.0	0.261464	0.595404
     29701.15	0.12408	1607875.0	1237679.0	682177.0	0.261676	0.595704
     29701.66	0.14119	1850139.0	1424647.0	785752.0	0.261337	0.595038
     29702.17	0.12485	1596049.0	1229011.0	677537.0	0.261321	0.595501
     29702.67	0.12378	1584890.0	1220611.0	673162.0	0.261163	0.595121
     29703.18	0.13628	1797963.0	1384629.0	763601.0	0.261222	0.595142
     29703.69	0.13424	1726917.0	1330200.0	733539.0	0.261008	0.595204
     29704.20	0.12880	1662406.0	1280455.0	706386.0	0.261050	0.594809
     29704.70	0.13549	1760261.0	1355908.0	748161.0	0.260991	0.594608
     29705.21	0.11493	1485694.0	1144640.0	631579.0	0.260792	0.594622
     29705.72	0.12961	1688650.0	1300894.0	717731.0	0.260878	0.594712
     29706.23	0.13101	1716401.0	1322366.0	729973.0	0.260807	0.594170
     29706.74	0.12503	1623628.0	1250747.0	690505.0	0.260922	0.594073
     29707.24	0.14412	1843959.0	1420844.0	784278.0	0.260664	0.594243
     29707.75	0.12137	1571830.0	1210592.0	668403.0	0.261131	0.593973
     29708.26	0.13786	1778563.0	1370724.0	756798.0	0.260467	0.593998
     29708.77	0.12763	1656149.0	1275918.0	705009.0	0.260829	0.593211
     29709.27	0.12830	1643813.0	1266665.0	699522.0	0.260631	0.593745
     29709.78	0.13122	1710013.0	1317486.0	727741.0	0.260776	0.593535
     29710.29	0.13811	1798838.0	1386140.0	765666.0	0.260618	0.593532
     29710.80	0.13570	1736369.0	1338267.0	739468.0	0.260421	0.593200
     29711.30	0.12111	1575850.0	1214510.0	670932.0	0.260454	0.593428
     29711.81	0.13580	1760388.0	1356583.0	749746.0	0.260565	0.592990
     29712.32	0.12563	1643397.0	1266486.0	699939.0	0.260519	0.593008
     29712.83	0.12246	1596629.0	1230177.0	680212.0	0.260736	0.592509
     29713.34	0.12761	1602613.0	1235112.0	683024.0	0.260474	0.592387
     29713.84	0.12637	1631986.0	1258027.0	695498.0	0.260253	0.592672
     29714.35	0.12322	1588240.0	1223736.0	676960.0	0.260718	0.592052
     29714.86	0.12685	1648345.0	1270495.0	702798.0	0.260365	0.592092
     29715.37	0.13060	1680878.0	1295880.0	717157.0	0.260126	0.591650
     29715.88	0.12829	1636617.0	1261564.0	698047.0	0.260279	0.591821
     29716.38	0.12253	1567281.0	1208128.0	668666.0	0.260270	0.591543
     29716.89	0.11904	1528257.0	1178216.0	652259.0	0.260126	0.591315
     29717.40	0.12244	1560875.0	1203194.0	666078.0	0.260267	0.591328
     29717.91	0.11371	1466298.0	1130195.0	626024.0	0.260351	0.590757
     29718.41	0.12110	1569538.0	1210511.0	670315.0	0.259739	0.591050
     29718.92	0.12570	1645635.0	1268845.0	702423.0	0.260019	0.591327
     29719.43	0.12903	1684173.0	1298515.0	719542.0	0.260053	0.590362
     29719.94	0.11306	1441210.0	1111015.0	615635.0	0.260209	0.590375
     29720.45	0.11462	1483597.0	1144123.0	634028.0	0.259831	0.590301
     29720.96	0.12009	1511682.0	1165933.0	646239.0	0.259701	0.590107
     29721.46	0.12315	1574659.0	1214314.0	673015.0	0.259859	0.590167
     29721.97	0.12458	1594311.0	1229512.0	681722.0	0.259824	0.589751
     29722.48	0.14209	1811221.0	1396982.0	774529.0	0.259687	0.589814
     29722.99	0.13591	1738035.0	1340618.0	743583.0	0.259624	0.589406
     29723.50	0.14173	1782054.0	1374266.0	762077.0	0.259847	0.589627
     29724.00	0.11601	1491063.0	1150232.0	638130.0	0.259526	0.589177
     29724.51	0.12657	1658072.0	1279247.0	709677.0	0.259384	0.589217
     29725.02	0.13091	1705541.0	1315774.0	730076.0	0.259457	0.589032
     29725.53	0.11768	1499370.0	1156610.0	641836.0	0.259552	0.588916
     29726.04	0.12957	1645005.0	1269324.0	704486.0	0.259259	0.588771
     29726.55	0.11971	1542462.0	1189933.0	660435.0	0.259483	0.588754
     29727.05	0.13172	1679273.0	1295541.0	719698.0	0.259433	0.587852
     29727.56	0.12337	1569404.0	1210598.0	671920.0	0.259581	0.588730
     29728.07	0.12815	1633308.0	1260508.0	699977.0	0.259093	0.588223
     29728.58	0.12486	1577493.0	1216930.0	676145.0	0.259506	0.587679
     29729.09	0.12921	1634033.0	1260837.0	700521.0	0.259275	0.587707
     29729.60	0.12206	1544322.0	1191657.0	661944.0	0.259240	0.587919
     29730.10	0.12865	1625020.0	1254052.0	697159.0	0.259140	0.587122
     29730.61	0.13182	1672144.0	1290390.0	716892.0	0.259162	0.587775
     29731.12	0.12985	1634175.0	1260941.0	701166.0	0.259280	0.586869
     29731.63	0.13299	1691507.0	1305127.0	725542.0	0.259319	0.587137
     29732.14	0.20049	2503407.0	1931931.0	1074047.0	0.259133	0.587086
     29732.65	0.12308	1547625.0	1193965.0	663694.0	0.259442	0.587214
     29733.15	0.067765	864324.0	667071.0	370999.0	0.259051	0.586697
     29733.66	0.10493	1331851.0	1028035.0	571746.0	0.258920	0.586710
     29734.17	0.12650	1592882.0	1229658.0	683974.0	0.258809	0.586571
     29734.68	0.12701	1635799.0	1262474.0	702517.0	0.259058	0.586159
     29735.19	0.12567	1567144.0	1209894.0	673307.0	0.258722	0.586087
     29735.70	0.13557	1763152.0	1360909.0	757192.0	0.258950	0.586291
     29736.21	0.18099	2327814.0	1796722.0	1000066.0	0.258966	0.585898
     29736.71	0.11836	1487777.0	1148834.0	639691.0	0.258536	0.585518
     29737.22	0.069688	897512.0	692886.0	385707.0	0.258761	0.585787
     29737.73	0.10500	1333912.0	1029964.0	573398.0	0.258592	0.585699
     29738.24	0.11083	1449237.0	1118990.0	623382.0	0.258611	0.585022
     29738.75	0.11626	1477581.0	1140749.0	635081.0	0.258721	0.585688
     29739.26	0.12888	1657133.0	1279764.0	712872.0	0.258413	0.585129
     29739.77	0.14755	1895270.0	1463160.0	815144.0	0.258763	0.584989
     29740.28	0.13861	1749840.0	1351432.0	752888.0	0.258360	0.585004
     29740.78	0.089901	1154936.0	891704.0	496922.0	0.258666	0.584701
     29741.29	0.083311	1072144.0	828125.0	461518.0	0.258252	0.584643
     29741.80	0.13256	1703041.0	1314787.0	732836.0	0.258741	0.584508
     29742.31	0.12279	1537570.0	1187446.0	662086.0	0.258398	0.584165
     29742.82	0.12720	1633474.0	1262073.0	703385.0	0.257953	0.584606
     29743.33	0.13156	1716034.0	1324939.0	738874.0	0.258649	0.583994
     29743.84	0.14427	1812657.0	1400629.0	781338.0	0.257872	0.583669
     29744.35	0.12411	1585930.0	1224404.0	683112.0	0.258717	0.583551
     29744.86	0.15734	2025321.0	1564470.0	872935.0	0.258181	0.583441
     29745.36	0.083831	1086401.0	839346.0	468138.0	0.258003	0.583860
     29745.87	0.14379	1845637.0	1425910.0	795398.0	0.258014	0.583723
     29746.38	0.11987	1528848.0	1181409.0	659241.0	0.257807	0.583374
     29746.89	0.13283	1676799.0	1295289.0	723308.0	0.258153	0.582654
     29747.40	0.14651	1850949.0	1430282.0	798187.0	0.257827	0.583284
     29747.91	0.18544	2333749.0	1803444.0	1006692.0	0.257778	0.583028
     29748.42	0.093968	1182369.0	913669.0	510373.0	0.257807	0.582327
     29748.93	0.10066	1256939.0	971235.0	542217.0	0.257866	0.582902
     29749.44	0.12674	1589025.0	1227554.0	685893.0	0.258097	0.582057
     29749.95	0.13331	1705465.0	1317944.0	736453.0	0.257765	0.581983
     29750.45	0.13474	1728628.0	1335346.0	746049.0	0.258138	0.582154
     29750.96	0.13102	1684921.0	1302191.0	727712.0	0.257670	0.581898
     29751.47	0.13281	1728417.0	1336151.0	746580.0	0.257413	0.582046
     29751.98	0.17366	2250173.0	1738785.0	972239.0	0.257821	0.581340
     29752.49	0.093373	1170785.0	904891.0	505914.0	0.257615	0.581448
     29753.00	0.10594	1349952.0	1043094.0	583289.0	0.257878	0.581264
     29753.51	0.12250	1562837.0	1208017.0	675533.0	0.257523	0.581233
     29754.02	0.12387	1576199.0	1218373.0	681216.0	0.257500	0.581392
     29754.53	0.13357	1691845.0	1307746.0	731333.0	0.257515	0.581191
     29755.04	0.12383	1609086.0	1243680.0	695500.0	0.257592	0.581199
     29755.55	0.12375	1603073.0	1239467.0	693188.0	0.257241	0.581135
     29756.06	0.14019	1772263.0	1370109.0	766502.0	0.257367	0.580808
     29756.57	0.12193	1569553.0	1213272.0	678906.0	0.257470	0.580593
     29757.07	0.10690	1407893.0	1088363.0	609017.0	0.257420	0.580584
     29757.58	0.12817	1638575.0	1267240.0	708769.0	0.256986	0.581067
     29758.09	0.11325	1464599.0	1132517.0	633574.0	0.257139	0.580821
     29758.60	0.12497	1621075.0	1253638.0	701543.0	0.257040	0.580523
     29759.11	0.11897	1526326.0	1180344.0	660758.0	0.257058	0.580174
     29759.62	0.12264	1600066.0	1237006.0	692781.0	0.257351	0.579735
     29760.13	0.12301	1536340.0	1188251.0	665296.0	0.256920	0.580006
     29760.64	0.12148	1565808.0	1211109.0	678023.0	0.256866	0.580111
     29761.15	0.12327	1559274.0	1205945.0	675073.0	0.256957	0.580198
     29761.66	0.12458	1565256.0	1210394.0	677950.0	0.257103	0.579628
     29762.17	0.13516	1691143.0	1308061.0	732454.0	0.256859	0.579901
     29762.68	0.12396	1543506.0	1193517.0	668944.0	0.257152	0.578959
     29763.19	0.13334	1695503.0	1311338.0	734806.0	0.256931	0.579197
     29763.70	0.12746	1634893.0	1264648.0	708581.0	0.256784	0.579285
     29764.21	0.13169	1680357.0	1299570.0	728580.0	0.256973	0.578691
     29764.72	0.12810	1631664.0	1262392.0	707351.0	0.256592	0.579237
     29765.23	0.11607	1481812.0	1146027.0	642209.0	0.256964	0.579143
     29765.74	0.12529	1598420.0	1236519.0	693122.0	0.256715	0.578849
     29766.25	0.12297	1605012.0	1241927.0	696088.0	0.256467	0.578943
     29766.76	0.12759	1632536.0	1263207.0	708173.0	0.256481	0.578721
     29767.26	0.12708	1627514.0	1259056.0	706187.0	0.256691	0.578237
     29767.77	0.12752	1629072.0	1259989.0	706963.0	0.256908	0.577880
     29768.28	0.12727	1642815.0	1271627.0	713116.0	0.256114	0.578408
     29768.79	0.12356	1591849.0	1231479.0	690913.0	0.256680	0.577957
     29769.30	0.13679	1723253.0	1333447.0	748157.0	0.256446	0.577910
     29769.81	0.12879	1654688.0	1280726.0	718573.0	0.256185	0.577915
     29770.32	0.12899	1665206.0	1288655.0	723193.0	0.256350	0.577678
     29770.83	0.12662	1629112.0	1260696.0	707271.0	0.256371	0.578005
     29771.34	0.13029	1650272.0	1277227.0	716520.0	0.256249	0.578040
     29771.85	0.13557	1742297.0	1348609.0	756816.0	0.256131	0.577709
     29772.36	0.12685	1628957.0	1261099.0	707662.0	0.255956	0.577772
     29772.87	0.12016	1543357.0	1194775.0	670343.0	0.256002	0.577924
     29773.38	0.13245	1687784.0	1306585.0	733514.0	0.256000	0.577325
     29773.89	0.12518	1586855.0	1228370.0	689525.0	0.256066	0.577440
     29774.40	0.11908	1517655.0	1175103.0	659829.0	0.255811	0.577130
     29774.91	0.12532	1638044.0	1267854.0	712038.0	0.256177	0.576950
     29775.42	0.13183	1686524.0	1305482.0	732916.0	0.256097	0.577297
     29775.93	0.11273	1455920.0	1127279.0	633015.0	0.255831	0.577068
     29776.44	0.10952	1358621.0	1052012.0	590723.0	0.255766	0.577113
     29776.95	0.10868	1369265.0	1060470.0	595370.0	0.255562	0.577284
     29777.46	0.12475	1571637.0	1216836.0	683636.0	0.255864	0.576584
     29777.97	0.12401	1565510.0	1212736.0	681235.0	0.255333	0.576727
     29778.48	0.11476	1456714.0	1127981.0	633522.0	0.255754	0.576890
     29778.99	0.11871	1514458.0	1172834.0	658965.0	0.255635	0.576508
     29779.50	0.14303	1826681.0	1414647.0	794622.0	0.255621	0.576769
     29780.01	0.096491	1204697.0	933375.0	524235.0	0.255176	0.576867
     29780.52	0.10886	1379814.0	1068617.0	600595.0	0.255583	0.576200
     29781.03	0.12993	1676276.0	1298667.0	729728.0	0.255236	0.576422
     29781.54	0.12740	1639861.0	1269969.0	713934.0	0.255619	0.575957
     29782.05	0.13329	1744334.0	1350976.0	759569.0	0.255546	0.575831
     29782.56	0.13527	1698658.0	1315938.0	739619.0	0.255289	0.576170
     29783.07	0.13228	1676426.0	1299076.0	730134.0	0.255011	0.576180
     29783.58	0.13039	1671916.0	1295160.0	728058.0	0.255336	0.576009
     29784.09	0.10420	1300601.0	1007622.0	566386.0	0.255233	0.576073
     29784.60	0.14441	1853231.0	1435538.0	807295.0	0.255391	0.575606
     29785.12	0.12642	1561867.0	1210447.0	680434.0	0.254892	0.576014
     29785.63	0.13253	1665870.0	1290593.0	726038.0	0.255246	0.575255
     29786.14	0.12408	1574451.0	1219733.0	686093.0	0.255275	0.575374
     29786.65	0.12941	1684269.0	1305019.0	733951.0	0.255114	0.575531
     29787.16	0.13662	1733783.0	1343251.0	755314.0	0.255213	0.575715
     29787.67	0.13030	1639778.0	1270465.0	714552.0	0.255178	0.575482
     29788.18	0.11891	1482502.0	1148844.0	646465.0	0.254975	0.574992
     29788.69	0.13746	1709275.0	1324509.0	744933.0	0.255027	0.575503
     29789.20	0.14343	1827499.0	1416492.0	797156.0	0.254765	0.574888
     29789.71	0.13843	1721703.0	1334306.0	750965.0	0.254903	0.574808
     29790.22	0.12786	1585936.0	1229339.0	692000.0	0.254698	0.574646
     29790.73	0.12109	1535894.0	1190079.0	669756.0	0.255093	0.574862
     29791.24	0.13015	1623654.0	1258395.0	708290.0	0.254842	0.574739
     29791.75	0.12617	1568001.0	1215287.0	684254.0	0.254821	0.574406
     29792.26	0.12998	1627749.0	1261815.0	710432.0	0.254647	0.574433
     29792.77	0.12794	1587635.0	1230849.0	692852.0	0.254541	0.574643
     29793.28	0.12507	1591306.0	1233410.0	694908.0	0.254772	0.573759
     29793.79	0.12667	1581066.0	1225810.0	690327.0	0.254497	0.574192
     29794.30	0.12957	1626725.0	1261186.0	710668.0	0.254516	0.573602
     29794.81	0.11703	1441073.0	1117173.0	629375.0	0.254587	0.573829
     29795.32	0.12117	1507644.0	1168928.0	658437.0	0.254461	0.573974
     29795.84	0.13005	1638419.0	1270521.0	715850.0	0.254305	0.573712
     29796.35	0.12040	1527305.0	1184279.0	667084.0	0.254371	0.573973
     29796.86	0.12486	1568082.0	1215796.0	685157.0	0.254454	0.573506
     29797.37	0.11990	1482064.0	1149099.0	647756.0	0.254458	0.573219
     29797.88	0.11619	1451258.0	1125379.0	634300.0	0.254311	0.573353
     29798.39	0.12401	1549692.0	1201647.0	677116.0	0.254363	0.573606
     29798.90	0.12082	1528412.0	1185684.0	668499.0	0.253909	0.573040
     29799.41	0.12165	1546381.0	1199405.0	676618.0	0.254092	0.572474
     29799.92	0.10928	1362826.0	1056966.0	596161.0	0.254158	0.572647
     29800.43	0.12118	1516220.0	1175908.0	663002.0	0.254180	0.573018
     29800.94	0.13551	1693186.0	1313141.0	741115.0	0.254190	0.572021
     29801.45	0.13231	1676813.0	1300601.0	733391.0	0.254069	0.572903
     29801.97	0.12172	1535652.0	1190991.0	671553.0	0.254169	0.572948
     29802.48	0.12350	1557454.0	1208464.0	681556.0	0.253702	0.572727
     29802.99	0.14006	1755577.0	1362004.0	768564.0	0.253840	0.572189
     29803.50	0.12765	1600286.0	1241469.0	700447.0	0.253887	0.572332
     29804.01	0.12381	1530101.0	1187120.0	669868.0	0.253804	0.572205
     29804.52	0.13727	1723345.0	1337038.0	754442.0	0.253810	0.572234
     29805.03	0.10723	1349063.0	1046606.0	590548.0	0.253858	0.572257
     29805.54	0.13388	1666518.0	1293048.0	729729.0	0.253734	0.572084
     29806.05	0.12245	1542953.0	1197224.0	676049.0	0.253693	0.571495
     29806.56	0.12635	1593315.0	1236064.0	698265.0	0.253885	0.571089
     29807.07	0.14027	1709294.0	1326291.0	748905.0	0.253694	0.571529
     29807.59	0.18826	2370621.0	1839388.0	1039029.0	0.253719	0.571146
     29808.10	0.074323	918971.0	712919.0	402702.0	0.253887	0.571171
     29808.61	0.099990	1262321.0	979707.0	553664.0	0.253454	0.570696
     29809.12	0.12363	1538123.0	1193770.0	674146.0	0.253446	0.571425
     29809.63	0.14444	1829482.0	1419864.0	802144.0	0.253472	0.571028
     29810.14	0.16270	2037902.0	1581253.0	893541.0	0.253703	0.570781
     29810.65	0.10716	1335266.0	1036640.0	585652.0	0.253146	0.571014
     29811.16	0.13666	1703898.0	1322595.0	747553.0	0.253323	0.570546
     29811.68	0.10051	1266961.0	983411.0	556085.0	0.253349	0.570106
     29812.19	0.11806	1482923.0	1151299.0	650996.0	0.253124	0.570143
     29812.70	0.13381	1697774.0	1317922.0	744976.0	0.253262	0.570460
     29813.21	0.11903	1507555.0	1170187.0	661600.0	0.253326	0.570258
     29813.72	0.12084	1526685.0	1185325.0	670063.0	0.253082	0.570401
     29814.23	0.16202	2095898.0	1627545.0	920566.0	0.252909	0.569839
     29814.74	0.11519	1477192.0	1146804.0	648664.0	0.253164	0.569819
     29815.25	0.12972	1644225.0	1276524.0	722168.0	0.253128	0.569638
     29815.77	0.10749	1373050.0	1065436.0	603024.0	0.253650	0.569182
     29816.28	0.10793	1393550.0	1081995.0	612214.0	0.253048	0.569480
     29816.79	0.11915	1507885.0	1170971.0	662716.0	0.252875	0.569242
     29817.30	0.11130	1417760.0	1100850.0	622784.0	0.252996	0.569638
     29817.81	0.11872	1500813.0	1165417.0	659957.0	0.252928	0.568660
     29818.32	0.12773	1621237.0	1258831.0	712517.0	0.253006	0.569135
     29818.83	0.11373	1447482.0	1124012.0	636310.0	0.252921	0.568974
     29819.35	0.15479	1935352.0	1503340.0	850995.0	0.252600	0.569038
     29819.86	0.085435	1085474.0	842856.0	477226.0	0.252976	0.568806
     29820.37	0.10673	1358876.0	1055175.0	597550.0	0.252951	0.568624
     29820.88	0.11655	1452185.0	1127680.0	638909.0	0.252907	0.568156
     29821.39	0.14139	1803565.0	1400388.0	793119.0	0.253016	0.568531
     29821.90	0.13240	1665466.0	1293642.0	732878.0	0.252643	0.568238
     29822.42	0.13496	1687961.0	1311025.0	742992.0	0.252712	0.567879
     29822.93	0.15943	1993504.0	1548638.0	878062.0	0.252518	0.567414
     29823.44	0.12539	1559401.0	1211668.0	686596.0	0.252304	0.568007
     29823.95	0.093630	1182054.0	918169.0	520522.0	0.252627	0.567549
     29824.46	0.13021	1642603.0	1276098.0	723401.0	0.252475	0.567599
     29824.97	0.12545	1562259.0	1213666.0	688151.0	0.252487	0.567393
     29825.49	0.12137	1528622.0	1187819.0	673269.0	0.252248	0.567729
     29826.00	0.13481	1712565.0	1330542.0	754421.0	0.252406	0.567391
     29826.51	0.13846	1741654.0	1353353.0	767882.0	0.252250	0.566704
     29827.02	0.12775	1557322.0	1210175.0	686642.0	0.252203	0.566707
     29827.53	0.13092	1666219.0	1294665.0	734320.0	0.252305	0.567062
     29828.04	0.12422	1556428.0	1209188.0	686025.0	0.252444	0.566790
     29828.56	0.13675	1722676.0	1338421.0	759490.0	0.252388	0.566599
     29829.07	0.13393	1678775.0	1304354.0	740383.0	0.252356	0.566296
     29829.58	0.12111	1521073.0	1182041.0	670869.0	0.252173	0.566424
     29830.09	0.14382	1777616.0	1381434.0	783857.0	0.252151	0.566651
     29830.60	0.13644	1720657.0	1336951.0	759032.0	0.252315	0.566103
     29831.11	0.13817	1743536.0	1355111.0	769477.0	0.252032	0.565928
     29831.63	0.12670	1590026.0	1235970.0	701755.0	0.251894	0.566027
     29832.14	0.11794	1486420.0	1155160.0	656067.0	0.252132	0.565731
     29832.65	0.12220	1575844.0	1224775.0	695491.0	0.252034	0.565894
     29833.16	0.12831	1600067.0	1243728.0	706442.0	0.251932	0.565627
     29833.67	0.12668	1597976.0	1242206.0	705964.0	0.251849	0.565080
     29834.19	0.12266	1540107.0	1197561.0	680504.0	0.251565	0.565209
     29834.70	0.12307	1571410.0	1221516.0	694084.0	0.251881	0.565255
     29835.21	0.13552	1693546.0	1316618.0	748409.0	0.251758	0.564872
     29835.72	0.11798	1491923.0	1159753.0	659219.0	0.251859	0.564907
     29836.23	0.11538	1445348.0	1124031.0	638893.0	0.251429	0.564940
     29836.75	0.13210	1673315.0	1301194.0	739785.0	0.251524	0.564678
     29837.26	0.11850	1482543.0	1152621.0	655429.0	0.251720	0.564504
     29837.77	0.12620	1593393.0	1238570.0	704467.0	0.251908	0.564271
     29838.28	0.11531	1451927.0	1129215.0	641819.0	0.251369	0.564972
     29838.80	0.13204	1658280.0	1289600.0	733491.0	0.251449	0.564272
     29839.31	0.11447	1465561.0	1140022.0	648619.0	0.251191	0.563957
     29839.82	0.12313	1525396.0	1186317.0	674872.0	0.251400	0.564086
     29840.33	0.11908	1546185.0	1202344.0	684464.0	0.251518	0.563392
     29840.84	0.12227	1563045.0	1215593.0	691635.0	0.251404	0.563929
     29841.36	0.11403	1433632.0	1115196.0	634904.0	0.251181	0.563312
     29841.87	0.12712	1593404.0	1239291.0	705211.0	0.251333	0.563798
     29842.38	0.13440	1656964.0	1288918.0	733827.0	0.251184	0.563285
     29842.89	0.13151	1637752.0	1273825.0	725041.0	0.251300	0.563551
     29843.41	0.12868	1629238.0	1267623.0	721757.0	0.250969	0.563210
     29843.92	0.12043	1506273.0	1171985.0	667274.0	0.250939	0.563253
     29844.43	0.12669	1588859.0	1236245.0	704141.0	0.250938	0.562855
     29844.94	0.13030	1652275.0	1285273.0	732145.0	0.251182	0.562748
     29845.46	0.11833	1492199.0	1161281.0	661775.0	0.250727	0.562353
     29845.97	0.13319	1680143.0	1306732.0	744631.0	0.251350	0.562396
     29846.48	0.12867	1650124.0	1283574.0	731598.0	0.251202	0.562172
     29846.99	0.12166	1536431.0	1195509.0	681523.0	0.250890	0.561997
     29847.50	0.11618	1493593.0	1162308.0	662332.0	0.250777	0.562396
     29848.02	0.12514	1607366.0	1250997.0	713116.0	0.250656	0.562052
     29848.53	0.14465	1849771.0	1439471.0	820624.0	0.250786	0.561966
     29849.04	0.11513	1458315.0	1135001.0	647015.0	0.250648	0.562019
     29849.56	0.13404	1710889.0	1331290.0	758989.0	0.250865	0.561916
     29850.07	0.12533	1594462.0	1240769.0	707872.0	0.250805	0.561223
     29850.58	0.13562	1735373.0	1350695.0	770384.0	0.250603	0.561485
     29851.09	0.12988	1670593.0	1299882.0	741644.0	0.250905	0.561159
     29851.61	0.13242	1690784.0	1315909.0	750994.0	0.250665	0.560885
     29852.12	0.13013	1658632.0	1291205.0	737226.0	0.250417	0.560437
     29852.63	0.12619	1633731.0	1271819.0	725874.0	0.250418	0.560827
     29853.14	0.11848	1501754.0	1169108.0	667302.0	0.250393	0.560754
     29853.66	0.13267	1707811.0	1329286.0	758710.0	0.250570	0.560778
     29854.17	0.12718	1647092.0	1281927.0	731783.0	0.250647	0.560636
     29854.68	0.12011	1536283.0	1195782.0	682623.0	0.250565	0.560613
     29855.19	0.13310	1745413.0	1358722.0	775661.0	0.250447	0.560584
     29855.71	0.12232	1569903.0	1222566.0	698041.0	0.250062	0.560429
     29856.22	0.11223	1454867.0	1132505.0	646924.0	0.250482	0.559958
     29856.73	0.12213	1581263.0	1231258.0	703342.0	0.250187	0.559948
     29857.25	0.12647	1639511.0	1276431.0	729237.0	0.250330	0.559824
     29857.76	0.12297	1581374.0	1231425.0	703377.0	0.250122	0.560034
     29858.27	0.11477	1495516.0	1164589.0	665142.0	0.250103	0.560123
     29858.78	0.10704	1395207.0	1086313.0	620864.0	0.250253	0.559433
     29859.30	0.11965	1558722.0	1213398.0	693532.0	0.250442	0.559383
     29859.81	0.12298	1587053.0	1235964.0	706622.0	0.250028	0.559111
     29860.32	0.10871	1429951.0	1113452.0	636684.0	0.250175	0.558947
     29860.84	0.11285	1456103.0	1134222.0	648298.0	0.249817	0.559352
     29861.35	0.11691	1503547.0	1170832.0	669485.0	0.250112	0.558961
     29861.86	0.14025	1826022.0	1422234.0	812954.0	0.249911	0.559310
     29862.37	0.12901	1680630.0	1308687.0	748836.0	0.250144	0.558260
     29862.89	0.11178	1455226.0	1133705.0	648374.0	0.249670	0.558779
     29863.40	0.14820	1913847.0	1490482.0	852538.0	0.250016	0.558637
     29863.91	0.13155	1701615.0	1325325.0	758310.0	0.249920	0.558321
     29864.43	0.12430	1608413.0	1252591.0	716561.0	0.250034	0.558506
     29864.94	0.12980	1707225.0	1330054.0	760863.0	0.249650	0.558522
     29865.45	0.11958	1545688.0	1204069.0	689146.0	0.249762	0.558009
     29865.97	0.13868	1802332.0	1403902.0	803206.0	0.249826	0.558400
     29866.48	0.12116	1581754.0	1232204.0	705507.0	0.249730	0.557643
     29866.99	0.13200	1731286.0	1348863.0	772122.0	0.249602	0.557875
     29867.50	0.13361	1742612.0	1357759.0	777328.0	0.249550	0.557728
     29868.02	0.12320	1613690.0	1257726.0	720261.0	0.249218	0.557447
     29868.53	0.13091	1702885.0	1326663.0	759989.0	0.249657	0.557118
     29869.04	0.12664	1625687.0	1266743.0	725530.0	0.249481	0.557302
     29869.56	0.14270	1856537.0	1446713.0	828677.0	0.249419	0.557219
     29870.07	0.13389	1757363.0	1369274.0	784506.0	0.249534	0.556982
     29870.58	0.13183	1716938.0	1337653.0	766649.0	0.249626	0.556643
     29871.10	0.13060	1708507.0	1331027.0	762640.0	0.249669	0.556920
     29871.61	0.14013	1800293.0	1403000.0	804239.0	0.249337	0.556472
     29872.12	0.12278	1604329.0	1250620.0	716887.0	0.249066	0.556476
     29872.64	0.13284	1706482.0	1329978.0	762500.0	0.249272	0.556315
     29873.15	0.12867	1677943.0	1307795.0	749643.0	0.249226	0.556501
     29873.66	0.12173	1586738.0	1236580.0	708793.0	0.249331	0.556541
     29874.18	0.12844	1680231.0	1309224.0	750622.0	0.249497	0.556288
     29874.69	0.12270	1623236.0	1265620.0	725387.0	0.248860	0.556612
     29875.20	0.13410	1757882.0	1370311.0	785998.0	0.249072	0.555839
     29875.72	0.11964	1562032.0	1217703.0	698245.0	0.249021	0.556152
     29876.23	0.13222	1716425.0	1337855.0	767372.0	0.249176	0.555851
     29876.74	0.12001	1554757.0	1212356.0	695809.0	0.248754	0.555246
     29877.26	0.12185	1568191.0	1222191.0	701488.0	0.249278	0.555197
     29877.77	0.11744	1508824.0	1176708.0	674949.0	0.248610	0.555839
     29878.29	0.12826	1679357.0	1309238.0	751483.0	0.248966	0.555152
     29878.80	0.12443	1597554.0	1245291.0	714862.0	0.249104	0.555035
     29879.31	0.13105	1651017.0	1287378.0	739164.0	0.248784	0.554843
     29879.83	0.12137	1578592.0	1230840.0	706536.0	0.248836	0.555078
     29880.34	0.11919	1553826.0	1211636.0	695461.0	0.248749	0.555152
     29880.85	0.10790	1410149.0	1099585.0	631115.0	0.248763	0.555200
     29881.37	0.12189	1607879.0	1253926.0	720098.0	0.248636	0.554647
     29881.88	0.12003	1523244.0	1188193.0	682731.0	0.248409	0.554088
     29882.39	0.13247	1711289.0	1334577.0	766641.0	0.248633	0.554351
     29882.91	0.12200	1585268.0	1236218.0	710154.0	0.248697	0.554330
     29883.42	0.12372	1612935.0	1257928.0	722691.0	0.248590	0.554239
     29883.94	0.12711	1652085.0	1288866.0	740443.0	0.248275	0.554269
     29884.45	0.13661	1784108.0	1391374.0	799303.0	0.248627	0.554307
     29884.96	0.13166	1719006.0	1340537.0	770315.0	0.248676	0.554026
     29885.48	0.11977	1548151.0	1207741.0	694042.0	0.248310	0.553974
     29885.99	0.12621	1618985.0	1263058.0	725819.0	0.248264	0.553990
     29886.50	0.12255	1586899.0	1238205.0	711838.0	0.248119	0.553568
     29887.02	0.13078	1694975.0	1321950.0	759825.0	0.248560	0.553775
     29887.53	0.11720	1503502.0	1172795.0	674008.0	0.248407	0.553903
     29888.05	0.12442	1626833.0	1269029.0	729743.0	0.248383	0.553315
     29888.56	0.12122	1588299.0	1239485.0	712665.0	0.247968	0.553440
     29889.07	0.12857	1686769.0	1316378.0	756920.0	0.247931	0.553382
     29889.59	0.12426	1577571.0	1230962.0	708098.0	0.248090	0.552969
     29890.10	0.13142	1674938.0	1306692.0	751645.0	0.248277	0.552990
     29890.62	0.12371	1610589.0	1257057.0	723253.0	0.247827	0.552769
     29891.13	0.14027	1828008.0	1426390.0	820805.0	0.248080	0.552616
     29891.64	0.12313	1598728.0	1247094.0	717730.0	0.248392	0.552478
     29892.16	0.13314	1725716.0	1346688.0	774758.0	0.247994	0.552853
     29892.67	0.12589	1642296.0	1281515.0	737264.0	0.248052	0.552852
     29893.19	0.15506	2005119.0	1564838.0	900703.0	0.247921	0.552362
     29893.70	0.11078	1421593.0	1109103.0	638818.0	0.248226	0.551687
     29894.21	0.12307	1596774.0	1246096.0	717316.0	0.247970	0.552254
     29894.73	0.12693	1635576.0	1276831.0	735302.0	0.247614	0.551855
     29895.24	0.12149	1578133.0	1231677.0	709122.0	0.247866	0.552104
     29895.76	0.13148	1710293.0	1335153.0	768747.0	0.247619	0.552039
     29896.27	0.12631	1635315.0	1276964.0	735332.0	0.247350	0.551919
     29896.78	0.13328	1741151.0	1359221.0	782580.0	0.247635	0.552071
     29897.30	0.15180	1977979.0	1543706.0	889646.0	0.247890	0.551118
     29897.81	0.093027	1208450.0	943390.0	543682.0	0.247614	0.551115
     29898.33	0.12931	1661880.0	1297490.0	747575.0	0.247518	0.551352
     29898.84	0.11161	1449795.0	1132108.0	652317.0	0.247341	0.551306
     29899.36	0.11536	1505633.0	1175337.0	677553.0	0.247658	0.550822
     29899.87	0.11973	1546656.0	1207566.0	695872.0	0.247488	0.551196
     29900.38	0.10609	1361183.0	1062884.0	612647.0	0.247368	0.550952
     29900.90	0.12050	1536464.0	1199815.0	691469.0	0.247316	0.551104
     29901.41	0.17036	2173600.0	1697923.0	978538.0	0.246979	0.551101
     29901.93	0.077377	1006375.0	785936.0	453217.0	0.247235	0.550504
     29902.44	0.10440	1377438.0	1076035.0	620390.0	0.246942	0.550690
     29902.96	0.12921	1669012.0	1303480.0	751509.0	0.247194	0.550710
     29903.47	0.10960	1393117.0	1088350.0	627741.0	0.246881	0.550290
     29903.98	0.13952	1795396.0	1402347.0	809147.0	0.247078	0.549922
     29904.50	0.13089	1707596.0	1334020.0	769265.0	0.246890	0.550517
     29905.01	0.12838	1671146.0	1305325.0	752842.0	0.247058	0.550352
     29905.53	0.12919	1676590.0	1309613.0	755708.0	0.247030	0.549832
     29906.04	0.13737	1761057.0	1375586.0	793832.0	0.247034	0.549763
     29906.56	0.11231	1431644.0	1118160.0	645338.0	0.247139	0.549666
     29907.07	0.13780	1777532.0	1388387.0	801657.0	0.247083	0.549217
     29907.59	0.13093	1680406.0	1313281.0	757789.0	0.246507	0.549879
     29908.10	0.12644	1636607.0	1278526.0	737643.0	0.246917	0.550003
     29908.62	0.12812	1638420.0	1280353.0	739067.0	0.246597	0.549503
     29909.13	0.15420	1975253.0	1543037.0	890613.0	0.246944	0.549598
     29909.64	0.17202	2179164.0	1702522.0	982815.0	0.246831	0.549445
     29910.16	0.079266	1001447.0	782841.0	451897.0	0.246272	0.549475
     29910.67	0.12623	1604534.0	1253547.0	724213.0	0.246856	0.548647
     29911.19	0.12879	1670001.0	1305066.0	753583.0	0.246571	0.549170
     29911.70	0.12473	1568264.0	1225947.0	707977.0	0.246256	0.549057
     29912.22	0.13307	1697455.0	1327072.0	766830.0	0.246155	0.548465
     29912.73	0.12902	1683502.0	1315842.0	760349.0	0.246399	0.548455
     29913.25	0.14070	1811389.0	1415709.0	817844.0	0.246463	0.548714
     29913.76	0.13559	1741230.0	1360558.0	786267.0	0.246697	0.548354
     29914.28	0.12175	1565420.0	1223784.0	707122.0	0.246206	0.548500
     29914.79	0.12439	1591996.0	1244657.0	719450.0	0.246129	0.548128
     29915.31	0.12635	1632012.0	1275635.0	737250.0	0.246370	0.548272
     29915.82	0.12927	1678385.0	1312135.0	758426.0	0.246176	0.548166
     29916.34	0.12624	1621553.0	1267975.0	732548.0	0.245963	0.548648
     29916.85	0.12950	1679601.0	1313037.0	759213.0	0.246213	0.547816
     29917.37	0.11604	1483689.0	1159954.0	670657.0	0.246151	0.547878
     29917.88	0.12723	1629718.0	1274396.0	736859.0	0.245935	0.547831
     29918.40	0.12387	1586089.0	1239812.0	716937.0	0.246311	0.547727
     29918.91	0.12279	1561881.0	1221518.0	706492.0	0.245797	0.547538
     29919.43	0.12497	1607379.0	1256823.0	726711.0	0.246018	0.547814
     29919.94	0.12338	1588931.0	1242435.0	718625.0	0.245988	0.547489
     29920.46	0.12339	1572926.0	1230185.0	711904.0	0.245773	0.546977
     29920.97	0.12273	1559337.0	1219405.0	705668.0	0.245898	0.546973
     29921.49	0.12058	1539271.0	1203865.0	696605.0	0.245772	0.547074
     29922.00	0.12283	1605491.0	1255622.0	726600.0	0.245799	0.547010
     29922.52	0.11149	1460186.0	1142073.0	660885.0	0.245719	0.547020
     29923.03	0.12768	1644192.0	1286031.0	744663.0	0.245688	0.546384
     29923.55	0.11212	1447776.0	1132223.0	655551.0	0.245846	0.546462
     29924.06	0.12269	1586576.0	1240877.0	718360.0	0.245760	0.546603
     29924.58	0.12250	1590759.0	1244354.0	720411.0	0.245595	0.546550
     29925.09	0.12696	1657392.0	1296373.0	750724.0	0.245675	0.546288
     29925.61	0.13694	1731081.0	1354385.0	784201.0	0.245399	0.546437
     29926.12	0.12275	1564868.0	1224036.0	709027.0	0.245648	0.546015
     29926.64	0.13275	1714148.0	1340644.0	776412.0	0.245766	0.546222
     29927.15	0.13174	1671156.0	1307316.0	757359.0	0.245539	0.545894
     29927.67	0.11903	1540014.0	1204317.0	698224.0	0.245879	0.545128
     29928.18	0.12867	1660631.0	1298881.0	752824.0	0.245695	0.545427
     29928.70	0.12738	1633558.0	1278184.0	740595.0	0.245320	0.545742
     29929.21	0.13065	1686057.0	1318941.0	764673.0	0.245564	0.545136
     29929.73	0.11889	1551549.0	1213675.0	703685.0	0.245601	0.545077
     29930.24	0.12218	1569260.0	1227881.0	711715.0	0.245314	0.545368
     29930.76	0.11969	1544438.0	1208337.0	700581.0	0.245415	0.545090
     29931.27	0.12050	1535438.0	1201888.0	696891.0	0.244922	0.545020
     29931.79	0.13587	1761711.0	1378714.0	799228.0	0.245134	0.545260
     29932.31	0.12201	1564902.0	1225016.0	710293.0	0.244869	0.545032
     29932.82	0.13136	1698508.0	1329691.0	770981.0	0.244804	0.545038
     29933.34	0.13382	1722824.0	1348621.0	782002.0	0.244882	0.544981
     29933.85	0.12294	1560557.0	1221732.0	708612.0	0.244773	0.544717
     29934.37	0.13654	1739316.0	1361558.0	789824.0	0.244862	0.544575
     29934.88	0.12672	1634618.0	1279320.0	742184.0	0.245080	0.544487
     29935.40	0.11889	1524296.0	1193263.0	692610.0	0.244841	0.543980
     29935.91	0.13560	1714319.0	1342495.0	779405.0	0.244486	0.543754
     29936.43	0.12774	1630594.0	1276409.0	740834.0	0.244894	0.544029
     29936.94	0.12306	1564844.0	1224904.0	710987.0	0.244924	0.543964
     29937.46	0.12473	1606537.0	1257974.0	730283.0	0.244578	0.543826
     29937.98	0.13247	1712139.0	1339940.0	777985.0	0.245119	0.543673
     29938.49	0.11893	1514383.0	1185789.0	688416.0	0.244600	0.543770
     29939.01	0.12700	1619777.0	1268244.0	736389.0	0.244655	0.543630
     29939.52	0.12052	1519621.0	1189825.0	690909.0	0.244655	0.543553
     29940.04	0.12472	1617543.0	1266583.0	736025.0	0.244586	0.542814
     29940.55	0.12190	1544253.0	1209333.0	702651.0	0.244471	0.542964
     29941.07	0.11880	1531123.0	1199034.0	696835.0	0.244485	0.542723
     29941.59	0.11952	1523492.0	1192845.0	692985.0	0.244664	0.543088
     29942.10	0.11354	1470067.0	1151465.0	668753.0	0.244273	0.543376
     29942.62	0.12093	1537053.0	1203890.0	699985.0	0.244309	0.542254
     29943.13	0.11336	1419573.0	1112040.0	646305.0	0.244160	0.542680
     29943.65	0.10847	1395525.0	1092870.0	635662.0	0.244463	0.541896
     29944.16	0.11784	1501590.0	1176256.0	683948.0	0.244188	0.542210
     29944.68	0.12667	1644459.0	1288047.0	748728.0	0.244284	0.542507
     29945.20	0.12239	1569222.0	1229288.0	714718.0	0.244145	0.542302
     29945.71	0.12010	1550984.0	1214627.0	706354.0	0.244453	0.542076
     29946.23	0.13105	1689558.0	1323407.0	769684.0	0.244257	0.541985
     29946.74	0.12166	1556153.0	1218915.0	708777.0	0.244256	0.542175
     29947.26	0.13228	1697026.0	1329423.0	773246.0	0.244132	0.541903
     29947.78	0.13070	1674529.0	1311863.0	763197.0	0.244084	0.541687
     29948.29	0.12608	1612703.0	1263583.0	735099.0	0.243960	0.541701
     29948.81	0.14438	1859355.0	1456682.0	847671.0	0.244068	0.541424
     29949.32	0.11588	1484733.0	1163323.0	676633.0	0.243954	0.541907
     29949.84	0.13270	1701562.0	1333309.0	776012.0	0.243883	0.541251
     29950.36	0.13145	1678176.0	1315041.0	765656.0	0.243840	0.540890
     29950.87	0.12941	1692062.0	1325839.0	771922.0	0.243902	0.540917
     29951.39	0.12154	1559614.0	1222239.0	711707.0	0.243754	0.540773
     29951.90	0.13163	1715168.0	1344353.0	782489.0	0.243598	0.541188
     29952.42	0.13060	1676176.0	1313606.0	764691.0	0.243739	0.541059
     29952.94	0.13579	1727650.0	1354082.0	788307.0	0.243638	0.540991
     29953.45	0.13185	1683338.0	1319668.0	768432.0	0.243399	0.540783
     29953.97	0.13097	1647313.0	1291520.0	752094.0	0.243326	0.540714
     29954.48	0.14117	1774489.0	1391065.0	810332.0	0.243443	0.540381
     29955.00	0.12950	1657941.0	1299697.0	756904.0	0.243445	0.540650
     29955.52	0.12410	1592587.0	1248650.0	727510.0	0.243297	0.540191
     29956.03	0.12898	1620005.0	1270173.0	739915.0	0.243276	0.540373
     29956.55	0.12700	1635724.0	1281976.0	747001.0	0.243683	0.540091
     29957.07	0.12991	1641668.0	1287140.0	750069.0	0.243290	0.540013
     29957.58	0.12739	1640734.0	1286217.0	749723.0	0.243438	0.539757
     29958.10	0.11562	1452238.0	1138360.0	663680.0	0.243517	0.539544
     29958.61	0.12845	1635836.0	1282334.0	747579.0	0.243472	0.539597
     29959.13	0.12942	1656332.0	1298729.0	757035.0	0.243219	0.539732
     29959.65	0.11906	1492743.0	1170503.0	682597.0	0.243182	0.539284
     29960.16	0.12805	1633625.0	1280777.0	746902.0	0.243335	0.539288
     29960.68	0.12381	1572923.0	1233355.0	719081.0	0.243198	0.539519
     29961.20	0.12289	1536366.0	1205065.0	702713.0	0.242886	0.539340
     29961.71	0.12787	1605532.0	1259178.0	734404.0	0.242996	0.539155
     29962.23	0.12386	1563202.0	1226064.0	715151.0	0.242927	0.539071
     29962.75	0.13151	1668021.0	1308451.0	763237.0	0.242794	0.539031
     29963.26	0.11999	1522756.0	1194333.0	696873.0	0.242934	0.538740
     29963.78	0.12079	1524741.0	1195929.0	697786.0	0.242901	0.538766
     29964.30	0.12175	1551924.0	1217602.0	710718.0	0.242612	0.538363
     29964.81	0.12424	1593024.0	1249535.0	729237.0	0.242863	0.538528
     29965.33	0.11606	1487430.0	1166710.0	680874.0	0.242862	0.538566
     29965.84	0.12374	1580448.0	1239600.0	723567.0	0.242920	0.538351
     29966.36	0.11298	1442329.0	1131698.0	660722.0	0.242540	0.538141
     29966.88	0.13816	1762606.0	1382903.0	807544.0	0.242608	0.537943
     29967.39	0.12448	1592897.0	1250291.0	730137.0	0.242178	0.537899
     29967.91	0.13830	1745785.0	1369638.0	799927.0	0.242658	0.537781
     29968.43	0.11617	1494099.0	1172325.0	684749.0	0.242534	0.537692
     29968.94	0.13897	1764642.0	1384091.0	808322.0	0.242904	0.537838
     29969.46	0.11894	1487468.0	1167043.0	681773.0	0.242602	0.537532
     29969.98	0.11950	1552147.0	1218035.0	711603.0	0.242400	0.537474
     29970.49	0.12728	1663229.0	1305098.0	762555.0	0.242483	0.537359
     29971.01	0.13415	1708937.0	1340869.0	783570.0	0.242554	0.537213
     29971.53	0.12256	1576318.0	1237070.0	722970.0	0.242346	0.537133
     29972.04	0.14706	1889269.0	1482598.0	866448.0	0.242394	0.537149
     29972.56	0.094679	1195147.0	937777.0	548172.0	0.242512	0.536923
     29973.08	0.11817	1483294.0	1164195.0	680297.0	0.242235	0.537256
     29973.60	0.13199	1663007.0	1305406.0	763258.0	0.242113	0.536673
     29974.11	0.13089	1650662.0	1295423.0	757230.0	0.242339	0.536926
     29974.63	0.13222	1662056.0	1304369.0	763121.0	0.242336	0.536058
     29975.15	0.13374	1682363.0	1320732.0	772302.0	0.242013	0.536566
     29975.66	0.13181	1660364.0	1303524.0	762671.0	0.241965	0.536000
     29976.18	0.15900	1983187.0	1556698.0	910656.0	0.242138	0.536157
     29976.70	0.091939	1182936.0	928692.0	543336.0	0.241978	0.536049
     29977.21	0.12207	1518916.0	1192843.0	698306.0	0.241657	0.535437
     29977.73	0.12413	1561843.0	1225678.0	717441.0	0.242372	0.535559
     29978.25	0.14122	1793473.0	1407449.0	823728.0	0.242375	0.535694
     29978.76	0.12696	1597576.0	1254410.0	733960.0	0.241822	0.535966
     29979.28	0.13252	1684636.0	1322752.0	774394.0	0.241835	0.535389
     29979.80	0.12504	1572367.0	1234762.0	722695.0	0.241704	0.535646
     29980.32	0.17687	2213984.0	1738244.0	1017749.0	0.241918	0.535282
     29980.83	0.097907	1209764.0	950360.0	556152.0	0.241340	0.535799
     29981.35	0.099834	1268188.0	996000.0	583289.0	0.241597	0.535064
     29981.87	0.12427	1567818.0	1231114.0	720899.0	0.241765	0.535176
     29982.38	0.11425	1435792.0	1127621.0	660501.0	0.241607	0.534867
     29982.90	0.10727	1346029.0	1057113.0	618921.0	0.241617	0.535319
     29983.42	0.14070	1790684.0	1406363.0	823895.0	0.241591	0.534719
     29983.94	0.12441	1564146.0	1228720.0	720039.0	0.241367	0.534423
     29984.45	0.14164	1783915.0	1401309.0	821159.0	0.241404	0.534445
     29984.97	0.094938	1207310.0	948550.0	555588.0	0.241216	0.534907
     29985.49	0.099067	1255219.0	986194.0	577779.0	0.241212	0.534662
     29986.00	0.11055	1408972.0	1106962.0	648679.0	0.241241	0.534437
     29986.52	0.11149	1391209.0	1092669.0	640537.0	0.241550	0.534072
     29987.04	0.12698	1610090.0	1264841.0	741474.0	0.241344	0.534062
     29987.56	0.12758	1608851.0	1264123.0	741022.0	0.241142	0.534104
     29988.07	0.15337	1924856.0	1512128.0	886972.0	0.241333	0.533460
     29988.59	0.16824	2141419.0	1682628.0	986266.0	0.241112	0.534186
     29989.11	0.10348	1294415.0	1017127.0	596402.0	0.241077	0.533822
     29989.63	0.092569	1154178.0	906471.0	532030.0	0.241585	0.532859
     29990.14	0.12958	1641709.0	1289844.0	756698.0	0.241216	0.533312
     29990.66	0.12714	1597387.0	1255253.0	736228.0	0.241032	0.533553
     29991.18	0.12205	1536248.0	1207060.0	708156.0	0.241155	0.533279
     29991.70	0.13429	1662448.0	1306448.0	766582.0	0.240979	0.533126
     29992.21	0.12727	1605678.0	1261980.0	740423.0	0.240864	0.533216
     29992.73	0.21470	2698770.0	2121203.0	1245197.0	0.240813	0.532690
     29993.25	0.086884	1061989.0	834886.0	490012.0	0.240604	0.532865
     29993.77	0.094585	1194034.0	938487.0	550934.0	0.240824	0.532654
     29994.28	0.12310	1537408.0	1208350.0	709176.0	0.240842	0.532907
     29994.80	0.12665	1585015.0	1245833.0	731268.0	0.240789	0.532780
     29995.32	0.13256	1675977.0	1317049.0	773080.0	0.241003	0.532766
     29995.84	0.14548	1833997.0	1441696.0	846698.0	0.240678	0.532231
     29996.35	0.14661	1842681.0	1448223.0	850304.0	0.240884	0.532499
     29996.87	0.18131	2268080.0	1782666.0	1046679.0	0.240824	0.532488
     29997.39	0.077478	975943.0	767230.0	450404.0	0.240618	0.532642
     29997.91	0.10867	1342020.0	1054707.0	619378.0	0.240913	0.532303
     29998.42	0.12984	1664147.0	1308348.0	768665.0	0.240547	0.531865
     29998.94	0.12532	1587096.0	1248152.0	733359.0	0.240242	0.531784
     29999.46	0.12436	1567339.0	1232794.0	724297.0	0.240096	0.531837
     29999.98	0.12950	1623482.0	1276425.0	750153.0	0.240510	0.531541
     30000.50	0.12838	1604185.0	1261327.0	741110.0	0.240451	0.531771
     30001.01	0.11873	1478661.0	1162666.0	683297.0	0.240421	0.531541
     30001.53	0.13214	1650020.0	1297269.0	762621.0	0.240526	0.531255
     30002.05	0.12176	1513486.0	1190654.0	699891.0	0.239913	0.531333
     30002.57	0.12861	1565883.0	1231604.0	724301.0	0.240132	0.530866
     30003.08	0.12732	1564130.0	1230095.0	723187.0	0.240238	0.531179
     30003.60	0.12899	1608015.0	1264704.0	743700.0	0.240162	0.530956
     30004.12	0.11879	1494576.0	1175763.0	691442.0	0.239925	0.530893
     30004.64	0.11905	1467829.0	1154505.0	679062.0	0.240113	0.530715
     30005.16	0.11535	1415658.0	1113953.0	655209.0	0.239679	0.530716
     30005.67	0.12251	1502685.0	1182111.0	695463.0	0.239952	0.530479
     30006.19	0.12640	1533149.0	1206375.0	709844.0	0.239704	0.530330
     30006.71	0.11703	1446446.0	1138146.0	669455.0	0.239709	0.530692
     30007.23	0.11040	1402341.0	1103354.0	649102.0	0.239788	0.530520
     30007.75	0.13245	1686458.0	1326894.0	780982.0	0.239790	0.530044
     30008.26	0.12158	1527173.0	1201489.0	707035.0	0.239857	0.530237
     30008.78	0.12062	1497968.0	1178703.0	693678.0	0.239695	0.530162
     30009.30	0.13187	1655551.0	1302426.0	766703.0	0.239905	0.529884
     30009.82	0.13546	1689721.0	1329665.0	782319.0	0.239636	0.530420
     30010.34	0.11965	1476453.0	1161856.0	683983.0	0.239624	0.529841
     30010.86	0.13756	1693279.0	1332465.0	784575.0	0.239636	0.529644
     30011.37	0.12722	1566474.0	1232380.0	725419.0	0.239880	0.529953
     30011.89	0.13118	1648840.0	1297642.0	764045.0	0.239523	0.529677
     30012.41	0.11681	1443776.0	1136231.0	669249.0	0.239545	0.529316
     30012.93	0.12279	1515763.0	1193202.0	702784.0	0.239278	0.529346
     30013.45	0.11907	1463350.0	1152043.0	678382.0	0.239191	0.529582
     30013.96	0.12661	1580614.0	1243850.0	732885.0	0.239602	0.528978
     30014.48	0.13799	1712199.0	1347915.0	793790.0	0.239220	0.529495
     30015.00	0.12494	1557855.0	1225945.0	722635.0	0.239598	0.528563
     30015.52	0.12744	1596305.0	1256187.0	740354.0	0.239611	0.528708
     30016.04	0.13175	1629973.0	1283173.0	756027.0	0.239228	0.529014
     30016.56	0.13006	1636488.0	1287999.0	758958.0	0.239463	0.528899
     30017.07	0.12705	1601926.0	1261404.0	743598.0	0.238981	0.528480
     30017.59	0.13103	1622291.0	1276960.0	752728.0	0.239357	0.528534
     30018.11	0.12640	1605741.0	1264331.0	745184.0	0.239042	0.528667
     30018.63	0.12979	1641403.0	1292429.0	761875.0	0.239028	0.528496
     30019.15	0.12895	1607557.0	1265677.0	746589.0	0.239108	0.527848
     30019.67	0.13003	1604845.0	1263742.0	745554.0	0.238950	0.527705
     30020.18	0.12408	1565427.0	1231855.0	727045.0	0.239637	0.527288
     30020.70	0.12771	1564733.0	1231861.0	726508.0	0.239189	0.528032
     30021.22	0.12711	1602049.0	1261493.0	744391.0	0.238987	0.527485
     30021.74	0.12462	1587319.0	1249703.0	737309.0	0.239141	0.527654
     30022.26	0.11283	1398118.0	1100692.0	649606.0	0.239188	0.527328
     30022.78	0.13146	1606397.0	1265264.0	746583.0	0.238713	0.527529
     30023.30	0.12367	1545308.0	1217077.0	718345.0	0.238771	0.527257
     30023.81	0.10937	1370254.0	1079334.0	636794.0	0.238652	0.527653
     30024.33	0.13097	1615699.0	1272470.0	751167.0	0.238808	0.527087
     30024.85	0.11917	1462027.0	1151412.0	679911.0	0.238835	0.526782
     30025.37	0.13200	1643843.0	1294860.0	764668.0	0.238634	0.526716
     30025.89	0.088644	1105742.0	871064.0	514288.0	0.238556	0.526932
     30026.41	0.11009	1345966.0	1060392.0	626291.0	0.238473	0.526579
     30026.93	0.11332	1383070.0	1089478.0	643550.0	0.238607	0.526454
     30027.44	0.12346	1527673.0	1203339.0	710682.0	0.238645	0.526630
     30027.96	0.11677	1453129.0	1145015.0	676148.0	0.238301	0.526761
     30028.48	0.14195	1764144.0	1389600.0	821322.0	0.238650	0.525856
     30029.00	0.12964	1629468.0	1284115.0	758629.0	0.238184	0.526312
     30029.52	0.14052	1784695.0	1405901.0	830799.0	0.238569	0.526046
     30030.04	0.11957	1482654.0	1168242.0	690510.0	0.238334	0.525825
     30030.56	0.12116	1521522.0	1198940.0	708388.0	0.238273	0.526201
     30031.08	0.12263	1534131.0	1208403.0	714488.0	0.238664	0.525489
     30031.60	0.13764	1706904.0	1344996.0	795282.0	0.238290	0.525450
     30032.11	0.12916	1578692.0	1244180.0	735671.0	0.238120	0.525449
     30032.63	0.14805	1830127.0	1442393.0	852618.0	0.238082	0.525747
     30033.15	0.15431	1927997.0	1519572.0	898452.0	0.238053	0.525511
     30033.67	0.10046	1242045.0	978616.0	578764.0	0.238375	0.525245
     30034.19	0.10565	1328424.0	1046994.0	619315.0	0.238070	0.525064
     30034.71	0.13172	1644426.0	1296327.0	766658.0	0.237857	0.525249
     30035.23	0.13360	1665869.0	1312990.0	776454.0	0.238040	0.525325
     30035.75	0.13260	1645094.0	1296612.0	767216.0	0.238043	0.524742
     30036.27	0.14135	1751979.0	1381121.0	817339.0	0.237851	0.524597
     30036.78	0.12853	1597068.0	1258994.0	744921.0	0.237856	0.524790
     30037.30	0.13043	1582498.0	1247558.0	738347.0	0.237817	0.524529
     30037.82	0.13251	1642470.0	1294644.0	766142.0	0.237965	0.524624
     30038.34	0.12401	1550974.0	1222775.0	723507.0	0.237760	0.524768
     30038.86	0.13640	1693753.0	1335259.0	790461.0	0.237821	0.524264
     30039.38	0.11829	1414946.0	1115255.0	660337.0	0.238008	0.524088
     30039.90	0.12853	1553134.0	1224736.0	724900.0	0.237550	0.524447
     30040.42	0.11761	1441793.0	1136796.0	673095.0	0.237674	0.524083
     30040.94	0.13352	1606371.0	1267172.0	750110.0	0.237190	0.524323
     30041.46	0.12246	1506238.0	1187748.0	703285.0	0.237556	0.524052
     30041.98	0.12981	1607619.0	1267368.0	750801.0	0.237812	0.523557
     30042.50	0.12239	1521285.0	1199775.0	710582.0	0.237421	0.523805
     30043.01	0.12432	1539877.0	1214746.0	719642.0	0.237168	0.523536
     30043.53	0.13124	1621316.0	1278683.0	757367.0	0.237408	0.523738
     30044.05	0.12038	1503914.0	1185679.0	702744.0	0.237755	0.523078
     30044.57	0.12634	1544473.0	1218349.0	721812.0	0.237186	0.523487
     30045.09	0.11965	1467047.0	1156960.0	685330.0	0.237456	0.523651
     30045.61	0.11345	1405918.0	1109054.0	657046.0	0.237183	0.523509
     30046.13	0.12127	1473229.0	1162224.0	689151.0	0.237121	0.522630
     30046.65	0.12044	1493586.0	1178107.0	698401.0	0.237271	0.522871
     30047.17	0.12136	1489156.0	1174765.0	696405.0	0.237141	0.522892
     30047.69	0.11918	1441168.0	1136811.0	673713.0	0.237227	0.523178
     30048.21	0.12522	1490952.0	1176166.0	697155.0	0.237155	0.523008
     30048.73	0.12040	1454756.0	1147760.0	680655.0	0.237026	0.522512
     30049.25	0.13644	1619094.0	1277135.0	757285.0	0.237247	0.522635
