# Diamond Light Source
# Instrument: B18-CORE XAS Date: Wed, 27 Jul 2016 22:52:36 BST
# Ring energy:   3.0
# Ring current - start: 300.7
# Primary slits:  vertical gap=  2.4; horizontal gap= 52.0; vertical offset=  0.4; horizontal offset= -1.0
# Secondary slits:  vertical gap=  3.5; horizontal gap= 23.0; vertical offset=  5.3; horizontal offset= -14.5
# OH Mirror Coating: Pt
# White beam filter: 140um PyC
# Crystal cut: Si(311)
# PostDCM slits:  vertical gap= 18.0; horizontal gap= 28.0; vertical offset= -9.1; horizontal offset= -16.5
# Experimental slits:  vertical gap= 28.6; horizontal gap= 45.0; vertical offset=  5.7; horizontal offset= -17.5
# HR Mirror : out; Y: 37.8; Pitch:  0.3; Coating: Pt
# Mirror 2: Pitch:  2.3; Height: -6.4; Yaw: -1.6; Bend:  0.8;
# I0 Stanford sensitivity: 20 nA/V Offsets: 20 pA
# It Stanford sensitivity: 100 nA/V Offsets: 1 pA
# Iref Stanford sensitivity: 20 nA/V Offsets: 1 pA
#
# Ascii output file name: 'Andrea_Sn//ascii/262884_PtSn_OC_Abu_3.dat'
# Nexus output file: '/dls/b18/data/2016/sp10306-9/Andrea_Sn//nexus/262884_PtSn_OC_Abu_3.nxs'
# XML folder and files:
# /dls/b18/data/2016/sp10306-9/xml/Andrea_Sn/
# QEXAFS_Parameters
# Sample_Parameters
# Detector_Parameters
# Output_Parameters
# The contents of these files are also stored in the nexus file.
#
# Sample name: PtSn_OC_Abu
# Sample description: default sample description
# Additional comments: default additional comments
# command: qexafs_energy 29000.0 30050.0 2094 263.53 qexafs_counterTimer01
#
#
# qexafs_energy	   time	       I0	       It	     Iref	  lnI0It	 lnItIref
     29000.24	0.13497	2054105.0	1612666.0	3349690.0	0.241952	-0.730979
     29000.73	0.17430	2679638.0	2103464.0	4368308.0	0.242096	-0.730790
     29001.21	0.14734	2239403.0	1757926.0	3651686.0	0.242075	-0.731054
     29001.69	0.084586	1289369.0	1012161.0	2102715.0	0.242065	-0.731142
     29002.18	0.11423	1752566.0	1375943.0	2858196.0	0.241942	-0.731051
     29002.66	0.12457	1880143.0	1475941.0	3066044.0	0.242052	-0.731092
     29003.14	0.12730	1941042.0	1523659.0	3165288.0	0.242110	-0.731129
     29003.63	0.13228	2012060.0	1579760.0	3281743.0	0.241886	-0.731102
     29004.11	0.12949	1953626.0	1534052.0	3187057.0	0.241775	-0.731185
     29004.59	0.12442	1869352.0	1467880.0	3049448.0	0.241773	-0.731141
     29005.08	0.12650	1915371.0	1503553.0	3123457.0	0.242080	-0.731109
     29005.56	0.12237	1851446.0	1453798.0	3020171.0	0.241788	-0.731134
     29006.05	0.12986	2000687.0	1570970.0	3264284.0	0.241797	-0.731347
     29006.53	0.12446	1911048.0	1500312.0	3116341.0	0.241979	-0.730986
     29007.01	0.12780	1953325.0	1534076.0	3187179.0	0.241605	-0.731208
     29007.50	0.12394	1905475.0	1496014.0	3108041.0	0.241927	-0.731188
     29007.98	0.13119	1999804.0	1570532.0	3262670.0	0.241635	-0.731131
     29008.46	0.12302	1859230.0	1460057.0	3033195.0	0.241687	-0.731141
     29008.95	0.10532	1595532.0	1253190.0	2604108.0	0.241515	-0.731398
     29009.43	0.12180	1842523.0	1447550.0	3007241.0	0.241263	-0.731151
     29009.92	0.12158	1853459.0	1455671.0	3023781.0	0.241587	-0.731041
     29010.40	0.12679	1919127.0	1507391.0	3131111.0	0.241490	-0.731008
     29010.88	0.12069	1838696.0	1443726.0	2999836.0	0.241829	-0.731330
     29011.37	0.12742	1928253.0	1514759.0	3147214.0	0.241358	-0.731261
     29011.85	0.12197	1823976.0	1432941.0	2976905.0	0.241290	-0.731155
     29012.34	0.14059	2149943.0	1688739.0	3508174.0	0.241459	-0.731114
     29012.82	0.11884	1826020.0	1434452.0	2979319.0	0.241356	-0.730912
     29013.30	0.12770	1943939.0	1526956.0	3172423.0	0.241440	-0.731219
     29013.79	0.12873	1966133.0	1543872.0	3207423.0	0.241775	-0.731174
     29014.27	0.12100	1851442.0	1454561.0	3022044.0	0.241261	-0.731229
     29014.76	0.13297	2037684.0	1600746.0	3326074.0	0.241344	-0.731323
     29015.24	0.13699	2113361.0	1660777.0	3450846.0	0.240994	-0.731334
     29015.72	0.12149	1846317.0	1450841.0	3014743.0	0.241049	-0.731371
     29016.21	0.11691	1777290.0	1396156.0	2900324.0	0.241367	-0.731100
     29016.69	0.11743	1787941.0	1404798.0	2918372.0	0.241171	-0.731132
     29017.18	0.13531	2045561.0	1607367.0	3339131.0	0.241075	-0.731113
     29017.66	0.11327	1699806.0	1335767.0	2774321.0	0.241008	-0.730900
     29018.14	0.14085	2161273.0	1699159.0	3529979.0	0.240564	-0.731158
     29018.63	0.12099	1840761.0	1446714.0	3004839.0	0.240884	-0.730929
     29019.11	0.14093	2138173.0	1680390.0	3491059.0	0.240926	-0.731179
     29019.60	0.11813	1788435.0	1405612.0	2920173.0	0.240868	-0.731170
     29020.08	0.13205	2004498.0	1575258.0	3273645.0	0.240975	-0.731485
     29020.57	0.12871	1972168.0	1550357.0	3220682.0	0.240648	-0.731108
     29021.05	0.12999	2026786.0	1592709.0	3308561.0	0.241015	-0.731077
     29021.53	0.12349	1866176.0	1466705.0	3046999.0	0.240873	-0.731139
     29022.02	0.12536	1902838.0	1495851.0	3108113.0	0.240651	-0.731321
     29022.50	0.12665	1922433.0	1510861.0	3138781.0	0.240912	-0.731155
     29022.99	0.13472	2048213.0	1610105.0	3344980.0	0.240668	-0.731161
     29023.47	0.14281	2181736.0	1715134.0	3563589.0	0.240630	-0.731277
     29023.96	0.10654	1635624.0	1285930.0	2671527.0	0.240542	-0.731168
     29024.44	0.10940	1667458.0	1311182.0	2724250.0	0.240371	-0.731264
     29024.92	0.11617	1779243.0	1399030.0	2906604.0	0.240409	-0.731206
     29025.41	0.12098	1868029.0	1468635.0	3051262.0	0.240550	-0.731222
     29025.89	0.12801	1969166.0	1548377.0	3216874.0	0.240403	-0.731203
     29026.38	0.12149	1849487.0	1454382.0	3021879.0	0.240327	-0.731298
     29026.86	0.12187	1837373.0	1444423.0	3001594.0	0.240627	-0.731434
     29027.35	0.11448	1749642.0	1375198.0	2857511.0	0.240813	-0.731353
     29027.83	0.10589	1617705.0	1271842.0	2642092.0	0.240542	-0.731105
     29028.32	0.11849	1822398.0	1432844.0	2977284.0	0.240492	-0.731350
     29028.80	0.11090	1689302.0	1328881.0	2760621.0	0.239978	-0.731118
     29029.28	0.11942	1845917.0	1451503.0	3015236.0	0.240377	-0.731079
     29029.77	0.13353	2048306.0	1611025.0	3347288.0	0.240142	-0.731280
     29030.25	0.13302	2022579.0	1590348.0	3304106.0	0.240421	-0.731213
     29030.74	0.13736	2114554.0	1663052.0	3454856.0	0.240189	-0.731126
     29031.22	0.12851	1976635.0	1554701.0	3229384.0	0.240113	-0.731008
     29031.71	0.11708	1788090.0	1405904.0	2920765.0	0.240467	-0.731165
     29032.19	0.12276	1852897.0	1457309.0	3026691.0	0.240159	-0.730878
     29032.68	0.12946	1992057.0	1567085.0	3255039.0	0.239951	-0.730987
     29033.16	0.12213	1882501.0	1480841.0	3076393.0	0.239991	-0.731148
     29033.65	0.15799	2427210.0	1908757.0	3965500.0	0.240290	-0.731180
     29034.13	0.13819	2084257.0	1639647.0	3406626.0	0.239931	-0.731241
     29034.62	0.13745	2112683.0	1662045.0	3453194.0	0.239910	-0.731251
     29035.10	0.10030	1534373.0	1207074.0	2507373.0	0.239923	-0.731036
     29035.58	0.11030	1695691.0	1333874.0	2770712.0	0.240003	-0.731017
     29036.07	0.12809	1990669.0	1566449.0	3253936.0	0.239659	-0.731054
     29036.55	0.13773	2106753.0	1657088.0	3442611.0	0.240086	-0.731168
     29037.04	0.13456	2054516.0	1616602.0	3358540.0	0.239714	-0.731180
     29037.52	0.12671	1915138.0	1506757.0	3130307.0	0.239830	-0.731171
     29038.01	0.13945	2097557.0	1650442.0	3428457.0	0.239730	-0.731067
     29038.49	0.14218	2129653.0	1675850.0	3481473.0	0.239639	-0.731135
     29038.98	0.12263	1856532.0	1460841.0	3034955.0	0.239698	-0.731184
     29039.46	0.12954	1941852.0	1528230.0	3175651.0	0.239532	-0.731402
     29039.95	0.12918	1957541.0	1540457.0	3200030.0	0.239610	-0.731081
     29040.43	0.13093	1999427.0	1573247.0	3268864.0	0.239719	-0.731301
     29040.92	0.13228	2006651.0	1578464.0	3279360.0	0.240015	-0.731196
     29041.40	0.11890	1797514.0	1414777.0	2938813.0	0.239433	-0.731034
     29041.89	0.13029	1981682.0	1559466.0	3238850.0	0.239603	-0.730875
     29042.37	0.12316	1862282.0	1465657.0	3043938.0	0.239499	-0.730848
     29042.86	0.12084	1813909.0	1427669.0	2965612.0	0.239441	-0.731040
     29043.34	0.13908	2098809.0	1651726.0	3430512.0	0.239549	-0.730889
     29043.83	0.11991	1813622.0	1427727.0	2965672.0	0.239242	-0.731020
     29044.31	0.12840	1954640.0	1538426.0	3194738.0	0.239446	-0.730745
     29044.80	0.12142	1876639.0	1477024.0	3066746.0	0.239453	-0.730588
     29045.28	0.12404	1876038.0	1476763.0	3067064.0	0.239310	-0.730868
     29045.77	0.11375	1731418.0	1363150.0	2830871.0	0.239143	-0.730786
     29046.25	0.12776	1975401.0	1554990.0	3229167.0	0.239302	-0.730755
     29046.74	0.11290	1727698.0	1360192.0	2824230.0	0.239164	-0.730610
     29047.22	0.11337	1722351.0	1355687.0	2815952.0	0.239382	-0.730992
     29047.71	0.12843	1976050.0	1555865.0	3230387.0	0.239068	-0.730570
     29048.19	0.12151	1838446.0	1447414.0	3006041.0	0.239142	-0.730845
     29048.68	0.12483	1902297.0	1497490.0	3109698.0	0.239272	-0.730735
     29049.16	0.12670	1916784.0	1509053.0	3133908.0	0.239166	-0.730798
     29049.65	0.11945	1819370.0	1432561.0	2974638.0	0.239027	-0.730659
     29050.13	0.13917	2127563.0	1675029.0	3478333.0	0.239147	-0.730723
     29050.62	0.12330	1885490.0	1484580.0	3082255.0	0.239056	-0.730530
     29051.10	0.12707	1916997.0	1509469.0	3135015.0	0.239002	-0.730876
     29051.59	0.13176	1953366.0	1538276.0	3194166.0	0.238892	-0.730664
     29052.08	0.12984	1971804.0	1552633.0	3224154.0	0.238997	-0.730718
     29052.56	0.11957	1811468.0	1426553.0	2962164.0	0.238877	-0.730659
     29053.05	0.12777	1957348.0	1541484.0	3200492.0	0.238845	-0.730559
     29053.53	0.12433	1861308.0	1465902.0	3044310.0	0.238809	-0.730804
     29054.02	0.12204	1845356.0	1452958.0	3016290.0	0.239071	-0.730426
     29054.50	0.12556	1913670.0	1507072.0	3129046.0	0.238854	-0.730559
     29054.99	0.12478	1895677.0	1492691.0	3099286.0	0.238995	-0.730591
     29055.47	0.13265	1997680.0	1573534.0	3266157.0	0.238662	-0.730290
     29055.96	0.12492	1906088.0	1501177.0	3115946.0	0.238804	-0.730283
     29056.44	0.12992	1969340.0	1550834.0	3219510.0	0.238906	-0.730436
     29056.93	0.13430	2047156.0	1612720.0	3346881.0	0.238529	-0.730107
     29057.41	0.11924	1811351.0	1426634.0	2962501.0	0.238755	-0.730716
     29057.90	0.13429	2036104.0	1603942.0	3329785.0	0.238574	-0.730443
     29058.39	0.12452	1881966.0	1482465.0	3077805.0	0.238611	-0.730510
     29058.87	0.14074	2105238.0	1658475.0	3442403.0	0.238530	-0.730271
     29059.36	0.11849	1806198.0	1422934.0	2953746.0	0.238503	-0.730353
     29059.84	0.13235	1981678.0	1561542.0	3241144.0	0.238270	-0.730253
     29060.33	0.14101	2121582.0	1671812.0	3470408.0	0.238254	-0.730364
     29060.81	0.10864	1629307.0	1283326.0	2663713.0	0.238700	-0.730266
     29061.30	0.11081	1676380.0	1320867.0	2741511.0	0.238348	-0.730221
     29061.78	0.13007	1994732.0	1571561.0	3260955.0	0.238440	-0.729951
     29062.27	0.12139	1826966.0	1439445.0	2988701.0	0.238399	-0.730581
     29062.76	0.12811	1931379.0	1521560.0	3158782.0	0.238498	-0.730450
     29063.24	0.11644	1771251.0	1395756.0	2896712.0	0.238250	-0.730140
     29063.73	0.12834	1950163.0	1537027.0	3189960.0	0.238063	-0.730158
     29064.21	0.15461	2344576.0	1847649.0	3834539.0	0.238191	-0.730135
     29064.70	0.090795	1362879.0	1073767.0	2228650.0	0.238426	-0.730223
     29065.18	0.10568	1596368.0	1258004.0	2609984.0	0.238205	-0.729818
     29065.67	0.094044	1409222.0	1111005.0	2305528.0	0.237773	-0.730045
     29066.16	0.11383	1712012.0	1349354.0	2800168.0	0.238043	-0.730053
     29066.64	0.12239	1804768.0	1422438.0	2952083.0	0.238060	-0.730139
     29067.13	0.12300	1837045.0	1447832.0	3004254.0	0.238091	-0.729962
     29067.61	0.12967	1947586.0	1534821.0	3184647.0	0.238177	-0.729928
     29068.10	0.17269	2605580.0	2053506.0	4260923.0	0.238107	-0.729937
     29068.59	0.096378	1451721.0	1144221.0	2374027.0	0.238026	-0.729864
     29069.07	0.11115	1684817.0	1328206.0	2755674.0	0.237828	-0.729833
     29069.56	0.11860	1794945.0	1415169.0	2934987.0	0.237725	-0.729454
     29070.04	0.13957	2105067.0	1659047.0	3442303.0	0.238104	-0.729897
     29070.53	0.12174	1797866.0	1417388.0	2940458.0	0.237785	-0.729750
     29071.01	0.13003	1963996.0	1548246.0	3211540.0	0.237858	-0.729628
     29071.50	0.17202	2578483.0	2032939.0	4217181.0	0.237719	-0.729684
     29071.99	0.14664	2209477.0	1741933.0	3613972.0	0.237760	-0.729812
     29072.47	0.076395	1158588.0	913334.0	1894737.0	0.237856	-0.729734
     29072.96	0.11335	1747108.0	1377463.0	2857014.0	0.237718	-0.729534
     29073.44	0.13716	2094187.0	1651015.0	3424902.0	0.237775	-0.729683
     29073.93	0.13094	1982925.0	1563197.0	3242407.0	0.237840	-0.729583
     29074.42	0.13403	2044044.0	1611386.0	3342189.0	0.237836	-0.729531
     29074.90	0.13599	2056399.0	1621339.0	3362526.0	0.237704	-0.729440
     29075.39	0.14918	2236274.0	1763287.0	3656216.0	0.237631	-0.729249
     29075.87	0.17691	2665239.0	2101805.0	4357795.0	0.237497	-0.729170
     29076.36	0.096375	1457980.0	1149900.0	2384027.0	0.237377	-0.729116
     29076.85	0.11114	1672527.0	1319031.0	2734942.0	0.237438	-0.729213
     29077.33	0.13550	2058456.0	1623114.0	3365663.0	0.237610	-0.729278
     29077.82	0.12310	1870079.0	1474979.0	3057244.0	0.237337	-0.728870
     29078.31	0.13386	2037492.0	1606627.0	3330600.0	0.237583	-0.729016
     29078.79	0.12628	1895378.0	1494977.0	3098157.0	0.237307	-0.728697
     29079.28	0.16003	2402972.0	1895247.0	3928447.0	0.237357	-0.728895
     29079.76	0.10632	1614815.0	1273534.0	2639478.0	0.237425	-0.728785
     29080.25	0.10183	1535839.0	1211229.0	2510349.0	0.237441	-0.728786
     29080.74	0.13617	2017762.0	1591597.0	3298209.0	0.237251	-0.728642
     29081.22	0.12243	1834507.0	1447060.0	2999158.0	0.237242	-0.728798
     29081.71	0.12433	1880834.0	1483542.0	3073973.0	0.237283	-0.728538
     29082.20	0.12755	1917990.0	1513242.0	3135453.0	0.237023	-0.728519
     29082.68	0.12636	1915131.0	1510522.0	3129245.0	0.237331	-0.728336
     29083.17	0.11972	1804389.0	1423257.0	2948913.0	0.237274	-0.728489
     29083.65	0.13280	1994618.0	1573288.0	3259333.0	0.237285	-0.728355
     29084.14	0.11646	1740738.0	1373340.0	2844772.0	0.237063	-0.728237
     29084.63	0.11918	1776322.0	1401299.0	2903105.0	0.237145	-0.728381
     29085.11	0.12153	1801547.0	1421243.0	2943852.0	0.237114	-0.728187
     29085.60	0.12167	1811554.0	1429510.0	2960896.0	0.236853	-0.728160
     29086.09	0.11995	1793178.0	1414889.0	2929963.0	0.236938	-0.727939
     29086.57	0.12957	1942290.0	1532607.0	3173909.0	0.236897	-0.727994
     29087.06	0.12387	1816825.0	1433688.0	2968960.0	0.236840	-0.727962
     29087.55	0.12200	1830755.0	1444843.0	2991473.0	0.236728	-0.727765
     29088.03	0.13014	1920077.0	1515308.0	3138041.0	0.236747	-0.727980
     29088.52	0.13305	1987921.0	1568640.0	3247025.0	0.236880	-0.727530
     29089.01	0.13168	1917928.0	1513353.0	3132713.0	0.236918	-0.727572
     29089.49	0.13054	1967714.0	1552985.0	3214393.0	0.236694	-0.727460
     29089.98	0.11721	1732059.0	1366986.0	2829343.0	0.236703	-0.727436
     29090.47	0.12990	1924550.0	1518827.0	3143854.0	0.236754	-0.727511
     29090.95	0.11456	1683407.0	1328451.0	2749807.0	0.236806	-0.727517
     29091.44	0.11561	1707528.0	1347545.0	2788119.0	0.236762	-0.727083
     29091.93	0.13315	1975420.0	1559336.0	3226549.0	0.236521	-0.727153
     29092.41	0.12071	1798766.0	1419927.0	2937547.0	0.236495	-0.726969
     29092.90	0.13061	1934174.0	1527075.0	3158977.0	0.236326	-0.726894
     29093.39	0.12395	1836139.0	1449283.0	2997916.0	0.236596	-0.726848
     29093.87	0.13305	1973907.0	1557970.0	3223016.0	0.236631	-0.726934
     29094.36	0.12547	1871093.0	1477083.0	3054275.0	0.236454	-0.726473
     29094.85	0.14300	2115308.0	1670006.0	3453666.0	0.236373	-0.726609
     29095.33	0.12310	1804632.0	1424596.0	2945537.0	0.236468	-0.726403
     29095.82	0.12111	1781918.0	1406687.0	2908334.0	0.236453	-0.726343
     29096.31	0.13834	2066244.0	1631280.0	3371954.0	0.236367	-0.726127
     29096.79	0.12656	1854470.0	1463800.0	3026863.0	0.236563	-0.726491
     29097.28	0.12319	1818024.0	1435228.0	2965402.0	0.236426	-0.725689
     29097.77	0.14538	2110507.0	1666467.0	3443931.0	0.236222	-0.725908
     29098.25	0.11773	1727858.0	1363883.0	2818407.0	0.236547	-0.725836
     29098.74	0.11817	1743610.0	1376515.0	2844226.0	0.236403	-0.725736
     29099.23	0.12699	1909090.0	1507454.0	3114306.0	0.236205	-0.725584
     29099.71	0.11467	1703140.0	1345229.0	2779327.0	0.235909	-0.725645
     29100.20	0.12018	1785196.0	1409745.0	2912147.0	0.236119	-0.725482
     29100.69	0.12752	1935446.0	1528182.0	3155925.0	0.236259	-0.725203
     29101.17	0.12794	1885048.0	1488512.0	3074114.0	0.236176	-0.725240
     29101.66	0.12722	1906790.0	1506028.0	3109385.0	0.235945	-0.724949
     29102.15	0.10803	1658478.0	1309567.0	2703627.0	0.236204	-0.724898
     29102.64	0.11639	1734039.0	1369210.0	2826809.0	0.236219	-0.724915
     29103.12	0.10631	1594519.0	1259164.0	2599586.0	0.236124	-0.724904
     29103.61	0.12165	1836978.0	1450675.0	2994035.0	0.236093	-0.724593
     29104.10	0.11423	1715861.0	1354923.0	2796505.0	0.236170	-0.724626
     29104.58	0.11680	1747244.0	1379841.0	2847524.0	0.236071	-0.724482
     29105.07	0.11905	1794202.0	1416976.0	2923873.0	0.236035	-0.724384
     29105.56	0.12954	1946631.0	1537689.0	3170418.0	0.235820	-0.723583
     29106.04	0.12110	1807058.0	1427140.0	2943303.0	0.236028	-0.723860
     29106.53	0.12130	1810948.0	1430437.0	2949435.0	0.235870	-0.723634
     29107.02	0.12050	1821609.0	1438863.0	2966708.0	0.235867	-0.723600
     29107.51	0.12784	1921657.0	1517535.0	3128279.0	0.236101	-0.723396
     29107.99	0.13343	2019540.0	1594722.0	3287249.0	0.236170	-0.723352
     29108.48	0.12167	1840544.0	1453752.0	2996140.0	0.235913	-0.723177
     29108.97	0.13368	1985771.0	1568504.0	3231122.0	0.235885	-0.722707
     29109.46	0.13704	2082459.0	1645124.0	3388040.0	0.235734	-0.722436
     29109.94	0.13463	2052903.0	1621623.0	3340226.0	0.235827	-0.722611
     29110.43	0.13244	1970003.0	1556244.0	3204719.0	0.235760	-0.722349
     29110.92	0.11272	1701305.0	1343636.0	2766828.0	0.236016	-0.722322
     29111.40	0.13345	2030449.0	1604075.0	3301794.0	0.235710	-0.721919
     29111.89	0.12400	1888798.0	1492247.0	3071345.0	0.235658	-0.721833
     29112.38	0.13141	2001083.0	1580766.0	3253324.0	0.235779	-0.721768
     29112.87	0.12736	1938596.0	1531609.0	3151994.0	0.235645	-0.721716
     29113.35	0.13351	2002432.0	1582297.0	3254013.0	0.235485	-0.721011
     29113.84	0.13837	2064312.0	1630568.0	3353631.0	0.235869	-0.721115
     29114.33	0.13926	2096304.0	1656663.0	3406369.0	0.235370	-0.720842
     29114.82	0.13245	1980898.0	1565333.0	3218136.0	0.235452	-0.720704
     29115.30	0.12579	1926899.0	1522313.0	3129095.0	0.235681	-0.720513
     29115.79	0.13075	2001966.0	1581623.0	3249502.0	0.235678	-0.720050
     29116.28	0.13584	2058054.0	1625746.0	3340734.0	0.235794	-0.720224
     29116.77	0.14460	2185906.0	1727347.0	3547230.0	0.235444	-0.719580
     29117.25	0.12993	1938438.0	1531830.0	3145391.0	0.235419	-0.719475
     29117.74	0.12562	1890122.0	1493601.0	3066312.0	0.235451	-0.719286
     29118.23	0.11516	1708864.0	1350332.0	2771765.0	0.235478	-0.719134
     29118.72	0.12743	1917697.0	1515356.0	3108659.0	0.235475	-0.718541
     29119.20	0.12607	1917247.0	1514661.0	3107525.0	0.235699	-0.718635
     29119.69	0.11772	1761942.0	1392164.0	2855199.0	0.235557	-0.718282
     29120.18	0.12583	1890517.0	1493931.0	3062924.0	0.235439	-0.717959
     29120.67	0.12800	1893754.0	1496845.0	3067645.0	0.235202	-0.717551
     29121.15	0.12673	1881614.0	1486861.0	3047031.0	0.235463	-0.717500
     29121.64	0.12189	1821258.0	1439388.0	2948973.0	0.235309	-0.717239
     29122.13	0.12120	1787969.0	1412877.0	2894119.0	0.235452	-0.717053
     29122.62	0.11471	1665439.0	1316786.0	2696133.0	0.234895	-0.716625
     29123.10	0.12120	1756374.0	1388004.0	2841297.0	0.235385	-0.716394
     29123.59	0.11093	1608424.0	1271065.0	2600731.0	0.235400	-0.715937
     29124.08	0.13054	1900700.0	1502473.0	3073174.0	0.235110	-0.715598
     29124.57	0.11683	1695628.0	1339898.0	2740524.0	0.235460	-0.715556
     29125.06	0.12870	1885999.0	1490857.0	3048290.0	0.235107	-0.715230
     29125.54	0.11919	1733886.0	1370367.0	2800697.0	0.235287	-0.714790
     29126.03	0.11629	1688195.0	1334438.0	2725654.0	0.235150	-0.714198
     29126.52	0.12951	1891082.0	1495138.0	3053395.0	0.234931	-0.714036
     29127.01	0.12932	1862014.0	1471635.0	3005311.0	0.235285	-0.714007
     29127.49	0.13362	1943985.0	1536516.0	3136442.0	0.235222	-0.713572
     29127.98	0.13364	1938780.0	1532385.0	3127114.0	0.235234	-0.713285
     29128.47	0.12272	1816248.0	1435686.0	2927393.0	0.235130	-0.712469
     29128.96	0.13236	1940746.0	1533601.0	3126070.0	0.235454	-0.712158
     29129.45	0.11576	1657544.0	1310066.0	2670808.0	0.235259	-0.712304
     29129.93	0.13093	1849084.0	1461330.0	2977258.0	0.235343	-0.711656
     29130.42	0.12988	1851169.0	1463334.0	2980157.0	0.235100	-0.711259
     29130.91	0.11966	1705742.0	1348300.0	2744954.0	0.235156	-0.710920
     29131.40	0.12198	1748369.0	1382061.0	2812495.0	0.235107	-0.710496
     29131.89	0.12667	1839513.0	1454116.0	2957309.0	0.235103	-0.709882
     29132.37	0.12354	1825764.0	1443168.0	2933432.0	0.235158	-0.709332
     29132.86	0.12361	1801021.0	1423464.0	2892381.0	0.235260	-0.708987
     29133.35	0.13163	1899134.0	1501148.0	3048574.0	0.235168	-0.708444
     29133.84	0.13214	1899506.0	1501424.0	3048619.0	0.235180	-0.708275
     29134.33	0.12330	1791137.0	1415854.0	2873967.0	0.235118	-0.707960
     29134.81	0.13161	1908063.0	1508272.0	3059645.0	0.235124	-0.707334
     29135.30	0.12192	1736815.0	1372728.0	2783141.0	0.235253	-0.706780
     29135.79	0.13952	2008538.0	1587802.0	3216473.0	0.235056	-0.705935
     29136.28	0.12111	1749971.0	1383206.0	2802526.0	0.235195	-0.706117
     29136.77	0.12965	1899895.0	1501603.0	3039683.0	0.235265	-0.705220
     29137.25	0.13148	1919793.0	1517715.0	3071172.0	0.235011	-0.704853
     29137.74	0.11941	1760081.0	1391110.0	2812910.0	0.235258	-0.704118
     29138.23	0.13592	2004002.0	1584060.0	3201324.0	0.235155	-0.703573
     29138.72	0.12016	1763066.0	1393259.0	2815146.0	0.235409	-0.703369
     29139.21	0.12359	1812745.0	1433102.0	2893716.0	0.235001	-0.702700
     29139.70	0.12220	1793304.0	1417384.0	2860666.0	0.235247	-0.702242
     29140.18	0.11825	1732863.0	1369811.0	2761906.0	0.235102	-0.701248
     29140.67	0.12662	1869028.0	1477950.0	2978335.0	0.234763	-0.700708
     29141.16	0.12530	1813840.0	1433773.0	2887332.0	0.235137	-0.700023
     29141.65	0.11379	1654601.0	1307541.0	2631988.0	0.235412	-0.699591
     29142.14	0.11725	1700103.0	1343608.0	2702377.0	0.235330	-0.698773
     29142.63	0.11635	1666748.0	1317199.0	2647550.0	0.235367	-0.698127
     29143.11	0.12228	1758106.0	1389395.0	2790953.0	0.235369	-0.697515
     29143.60	0.10631	1540387.0	1217250.0	2443343.0	0.235439	-0.696773
     29144.09	0.12704	1851778.0	1463947.0	2936430.0	0.235010	-0.696058
     29144.58	0.10775	1575368.0	1245145.0	2495246.0	0.235237	-0.695135
     29145.07	0.11393	1646635.0	1301190.0	2605758.0	0.235455	-0.694444
     29145.56	0.12227	1766341.0	1396072.0	2794461.0	0.235248	-0.693977
     29146.04	0.12485	1786155.0	1411666.0	2822058.0	0.235295	-0.692696
     29146.53	0.11955	1704854.0	1347368.0	2691057.0	0.235326	-0.691781
     29147.02	0.13835	1983361.0	1567537.0	3128712.0	0.235287	-0.691116
     29147.51	0.11230	1613350.0	1275132.0	2542694.0	0.235263	-0.690174
     29148.00	0.13552	1960944.0	1549794.0	3089102.0	0.235304	-0.689758
     29148.49	0.12532	1804988.0	1425601.0	2838963.0	0.235960	-0.688845
     29148.98	0.14644	2110648.0	1667759.0	3316988.0	0.235514	-0.687576
     29149.46	0.12494	1793404.0	1416931.0	2815096.0	0.235622	-0.686503
     29149.95	0.16743	2399596.0	1895868.0	3762835.0	0.235624	-0.685496
     29150.44	0.10137	1437911.0	1136146.0	2253012.0	0.235550	-0.684626
     29150.93	0.11441	1663787.0	1314511.0	2603470.0	0.235632	-0.683380
     29151.42	0.12736	1860414.0	1469554.0	2907620.0	0.235840	-0.682376
     29151.91	0.14012	2038974.0	1610921.0	3183417.0	0.235641	-0.681149
     29152.40	0.12150	1768366.0	1397018.0	2756936.0	0.235716	-0.679780
     29152.88	0.13331	1932835.0	1526862.0	3010310.0	0.235773	-0.678828
     29153.37	0.13257	1943910.0	1535367.0	3023456.0	0.235932	-0.677631
     29153.86	0.17824	2556981.0	2019333.0	3971270.0	0.236060	-0.676319
     29154.35	0.099458	1446316.0	1142362.0	2242759.0	0.235922	-0.674609
     29154.84	0.13596	1970541.0	1556528.0	3051669.0	0.235850	-0.673231
     29155.33	0.12211	1769939.0	1397593.0	2737354.0	0.236194	-0.672240
     29155.82	0.13433	1928267.0	1522665.0	2976999.0	0.236160	-0.670454
     29156.31	0.12635	1865222.0	1472735.0	2875277.0	0.236259	-0.669028
     29156.79	0.12887	1894266.0	1495892.0	2915592.0	0.236109	-0.667350
     29157.28	0.13358	1966824.0	1552612.0	3020951.0	0.236481	-0.665633
     29157.77	0.12722	1859428.0	1467547.0	2850598.0	0.236677	-0.663936
     29158.26	0.13122	1921794.0	1516799.0	2941370.0	0.236657	-0.662273
     29158.75	0.11768	1721258.0	1358824.0	2630594.0	0.236436	-0.660590
     29159.24	0.11970	1743777.0	1376071.0	2657896.0	0.236821	-0.658302
     29159.73	0.13113	1906275.0	1504610.0	2901413.0	0.236617	-0.656664
     29160.22	0.12428	1823657.0	1438934.0	2768138.0	0.236941	-0.654272
     29160.71	0.13134	1936386.0	1527722.0	2932692.0	0.237046	-0.652143
     29161.19	0.12188	1830599.0	1444392.0	2765600.0	0.236955	-0.649569
     29161.68	0.12280	1808855.0	1426792.0	2726686.0	0.237265	-0.647658
     29162.17	0.13214	1958376.0	1544647.0	2944958.0	0.237320	-0.645299
     29162.66	0.12106	1788402.0	1410689.0	2681554.0	0.237244	-0.642318
     29163.15	0.11765	1706501.0	1345907.0	2551323.0	0.237377	-0.639544
     29163.64	0.12620	1868387.0	1472939.0	2784355.0	0.237816	-0.636757
     29164.13	0.11321	1668369.0	1315200.0	2478269.0	0.237858	-0.633572
     29164.62	0.12405	1837765.0	1448725.0	2723030.0	0.237866	-0.631061
     29165.11	0.12924	1938121.0	1527514.0	2861096.0	0.238077	-0.627563
     29165.60	0.12439	1830253.0	1442172.0	2691154.0	0.238304	-0.623820
     29166.09	0.12560	1868102.0	1471759.0	2737095.0	0.238465	-0.620439
     29166.57	0.11496	1693372.0	1334114.0	2470186.0	0.238454	-0.616026
     29167.06	0.13435	1976023.0	1556367.0	2871483.0	0.238732	-0.612474
     29167.55	0.12037	1784500.0	1405381.0	2581555.0	0.238830	-0.608083
     29168.04	0.15009	2235077.0	1759408.0	3215675.0	0.239298	-0.603060
     29168.53	0.12388	1809471.0	1424014.0	2589593.0	0.239555	-0.598021
     29169.02	0.12690	1881291.0	1480533.0	2679158.0	0.239556	-0.593100
     29169.51	0.12119	1781434.0	1401146.0	2522131.0	0.240128	-0.587814
     29170.00	0.12630	1838927.0	1446171.0	2587194.0	0.240263	-0.581655
     29170.49	0.12257	1811724.0	1424415.0	2531180.0	0.240518	-0.574924
     29170.98	0.11840	1725085.0	1355549.0	2393011.0	0.241070	-0.568346
     29171.47	0.12415	1801344.0	1415295.0	2481128.0	0.241195	-0.561375
     29171.96	0.12335	1804206.0	1416430.0	2463574.0	0.241981	-0.553474
     29172.45	0.12962	1882126.0	1477514.0	2547516.0	0.242041	-0.544758
     29172.94	0.12582	1841695.0	1445553.0	2470800.0	0.242194	-0.536050
     29173.42	0.13507	1946133.0	1526736.0	2582920.0	0.242712	-0.525788
     29173.91	0.12036	1735469.0	1360904.0	2278533.0	0.243129	-0.515383
     29174.40	0.13203	1921881.0	1506202.0	2493297.0	0.243713	-0.504015
     29174.89	0.13170	1900502.0	1489093.0	2433278.0	0.243951	-0.491072
     29175.38	0.12758	1837820.0	1438800.0	2319565.0	0.244771	-0.477570
     29175.87	0.12482	1800480.0	1408856.0	2237012.0	0.245275	-0.462363
     29176.36	0.13350	1904485.0	1489114.0	2326187.0	0.246030	-0.446049
     29176.85	0.12958	1839982.0	1437950.0	2203498.0	0.246537	-0.426828
     29177.34	0.13414	1881456.0	1468702.0	2207489.0	0.247667	-0.407477
     29177.83	0.11327	1618772.0	1262471.0	1855196.0	0.248597	-0.384919
     29178.32	0.12491	1800559.0	1403006.0	2013718.0	0.249480	-0.361366
     29178.81	0.11491	1634920.0	1272260.0	1774644.0	0.250799	-0.332805
     29179.30	0.12798	1796165.0	1396579.0	1885375.0	0.251628	-0.300101
     29179.79	0.12469	1824831.0	1417368.0	1855350.0	0.252686	-0.269272
     29180.28	0.12894	1869919.0	1449794.0	1827682.0	0.254474	-0.231627
     29180.77	0.11895	1710896.0	1324442.0	1592950.0	0.256026	-0.184596
     29181.26	0.12452	1833664.0	1417753.0	1635449.0	0.257243	-0.142844
     29181.75	0.10829	1542977.0	1190163.0	1290276.0	0.259623	-0.0807659
     29182.24	0.10648	1477731.0	1137280.0	1157838.0	0.261868	-0.0179150
     29182.73	0.11816	1694976.0	1301089.0	1247717.0	0.264467	0.0418861
     29183.22	0.11556	1663770.0	1273338.0	1139104.0	0.267444	0.111400
     29183.71	0.11663	1652004.0	1261040.0	1048408.0	0.270052	0.184664
     29184.20	0.12927	1847710.0	1405666.0	1077557.0	0.273436	0.265815
     29184.68	0.12940	1858367.0	1407945.0	997151.0	0.277567	0.344984
     29185.17	0.11024	1582548.0	1194931.0	785567.0	0.280948	0.419438
     29185.66	0.11505	1656452.0	1244914.0	755348.0	0.285612	0.499643
     29186.15	0.12466	1779843.0	1331434.0	751779.0	0.290269	0.571569
     29186.64	0.13396	1936237.0	1441239.0	761257.0	0.295243	0.638287
     29187.13	0.13041	1867838.0	1382965.0	685773.0	0.300552	0.701438
     29187.62	0.13325	1898625.0	1397033.0	656049.0	0.306779	0.755870
     29188.11	0.13898	2015401.0	1474603.0	662405.0	0.312429	0.800267
     29188.60	0.12852	1833952.0	1333805.0	578720.0	0.318437	0.834972
     29189.09	0.12898	1798989.0	1298273.0	548474.0	0.326190	0.861650
     29189.58	0.11544	1602032.0	1149334.0	478108.0	0.332090	0.877101
     29190.07	0.12548	1769166.0	1261448.0	520532.0	0.338248	0.885164
     29190.56	0.13204	1871341.0	1326076.0	546762.0	0.344431	0.885966
     29191.05	0.13193	1900783.0	1339776.0	554206.0	0.349763	0.882721
     29191.54	0.13676	1933277.0	1355771.0	567435.0	0.354846	0.870999
     29192.03	0.13221	1875713.0	1309928.0	555272.0	0.359017	0.858269
     29192.52	0.13709	1915679.0	1332865.0	573513.0	0.362741	0.843305
     29193.01	0.12511	1772895.0	1230357.0	538473.0	0.365309	0.826322
     29193.50	0.13173	1848487.0	1280858.0	570361.0	0.366837	0.809016
     29193.99	0.13997	2013653.0	1393645.0	630721.0	0.368028	0.792814
     29194.48	0.12436	1770395.0	1225663.0	563806.0	0.367721	0.776527
     29194.97	0.13200	1843086.0	1276314.0	596818.0	0.367465	0.760119
     29195.46	0.12919	1818869.0	1261207.0	597695.0	0.366146	0.746744
     29195.95	0.12459	1772589.0	1231303.0	591518.0	0.364368	0.733136
     29196.44	0.13944	1981340.0	1379408.0	670358.0	0.362119	0.721598
     29196.93	0.11904	1677183.0	1171194.0	575373.0	0.359092	0.710760
     29197.42	0.11972	1663356.0	1164821.0	577752.0	0.356270	0.701178
     29197.92	0.12898	1808867.0	1270248.0	635042.0	0.353489	0.693276
     29198.41	0.12158	1746731.0	1230084.0	618637.0	0.350664	0.687319
     29198.90	0.13130	1843825.0	1302842.0	659574.0	0.347294	0.680709
     29199.39	0.12308	1741589.0	1234234.0	627862.0	0.344347	0.675885
     29199.88	0.12756	1798378.0	1277606.0	652622.0	0.341897	0.671745
     29200.37	0.12085	1705090.0	1214313.0	621993.0	0.339439	0.669005
     29200.86	0.11821	1649651.0	1177619.0	603997.0	0.337069	0.667681
     29201.35	0.13283	1883062.0	1347338.0	691901.0	0.334768	0.666443
     29201.84	0.11411	1610622.0	1154615.0	593348.0	0.332853	0.665741
     29202.33	0.12308	1766165.0	1267952.0	651240.0	0.331408	0.666280
     29202.82	0.12076	1756412.0	1263402.0	648077.0	0.329465	0.667554
     29203.31	0.12807	1820124.0	1310924.0	671369.0	0.328172	0.669169
     29203.80	0.12163	1703203.0	1228091.0	627969.0	0.327050	0.670725
     29204.29	0.12315	1735358.0	1252984.0	639056.0	0.325686	0.673291
     29204.78	0.11334	1613466.0	1166136.0	592623.0	0.324689	0.676893
     29205.27	0.12540	1763270.0	1275901.0	646516.0	0.323517	0.679810
     29205.76	0.13050	1849461.0	1339486.0	676230.0	0.322608	0.683508
     29206.25	0.13160	1897866.0	1375077.0	692177.0	0.322220	0.686423
     29206.74	0.12996	1827145.0	1325024.0	664868.0	0.321324	0.689597
     29207.23	0.12339	1774127.0	1287051.0	643765.0	0.320955	0.692775
     29207.72	0.12291	1765789.0	1281835.0	639586.0	0.320305	0.695227
     29208.21	0.14033	1987188.0	1443198.0	718127.0	0.319859	0.697970
     29208.70	0.12356	1772116.0	1287350.0	638896.0	0.319588	0.700599
     29209.19	0.12029	1726963.0	1255842.0	622393.0	0.318558	0.701990
     29209.69	0.12223	1730572.0	1258020.0	622329.0	0.318913	0.703825
     29210.18	0.12293	1744516.0	1269048.0	627251.0	0.318210	0.704676
     29210.67	0.12987	1858715.0	1352290.0	667847.0	0.318086	0.705496
     29211.16	0.12597	1771231.0	1288960.0	636378.0	0.317839	0.705798
     29211.65	0.12562	1774019.0	1291556.0	637877.0	0.317400	0.705457
     29212.14	0.12876	1823325.0	1327734.0	655908.0	0.317188	0.705208
     29212.63	0.12231	1771493.0	1290717.0	638060.0	0.316625	0.704521
     29213.12	0.12835	1825930.0	1331013.0	659291.0	0.316149	0.702531
     29213.61	0.13082	1863178.0	1358942.0	674275.0	0.315577	0.700824
     29214.10	0.13412	1930377.0	1408475.0	700386.0	0.315208	0.698631
     29214.59	0.12754	1830636.0	1336558.0	666796.0	0.314566	0.695369
     29215.08	0.13269	1899819.0	1387700.0	694436.0	0.314111	0.692303
     29215.57	0.12891	1827212.0	1335346.0	671075.0	0.313601	0.688065
     29216.06	0.12897	1834169.0	1340891.0	676861.0	0.313257	0.683624
     29216.56	0.12203	1764969.0	1290381.0	654354.0	0.313196	0.679044
     29217.05	0.12217	1739455.0	1272833.0	648499.0	0.312327	0.674340
     29217.54	0.11944	1682947.0	1231296.0	630489.0	0.312479	0.669327
     29218.03	0.12468	1793587.0	1312928.0	674850.0	0.311958	0.665525
     29218.52	0.12171	1737368.0	1271908.0	656466.0	0.311853	0.661403
     29219.01	0.13182	1855959.0	1359010.0	704196.0	0.311645	0.657455
     29219.50	0.13310	1863172.0	1364479.0	708937.0	0.311508	0.654761
     29219.99	0.13318	1910074.0	1398852.0	728801.0	0.311490	0.652006
     29220.48	0.10928	1556600.0	1139950.0	594538.0	0.311520	0.650955
     29220.97	0.093271	1338283.0	979824.0	511358.0	0.311770	0.650303
     29221.47	0.11261	1605007.0	1175481.0	613702.0	0.311451	0.649923
     29221.96	0.12019	1740792.0	1274763.0	665161.0	0.311580	0.650486
     29222.45	0.11212	1582215.0	1158240.0	603294.0	0.311924	0.652252
     29222.94	0.12724	1790266.0	1310273.0	680916.0	0.312129	0.654552
     29223.43	0.11712	1662450.0	1216987.0	630795.0	0.311914	0.657152
     29223.92	0.12773	1821109.0	1333017.0	688794.0	0.312001	0.660258
     29224.41	0.10534	1475569.0	1079592.0	555708.0	0.312460	0.664095
     29224.90	0.12806	1776883.0	1300749.0	666980.0	0.311920	0.667935
     29225.39	0.13274	1863089.0	1363114.0	696270.0	0.312464	0.671790
     29225.89	0.13558	1949327.0	1425956.0	725497.0	0.312642	0.675741
     29226.38	0.11346	1605965.0	1174848.0	595344.0	0.312586	0.679755
     29226.87	0.14430	2037165.0	1490310.0	751959.0	0.312575	0.684058
     29227.36	0.15612	2204495.0	1611841.0	810363.0	0.313121	0.687650
     29227.85	0.14007	1983048.0	1449899.0	726415.0	0.313141	0.691128
     29228.34	0.10937	1568323.0	1146509.0	571805.0	0.313285	0.695679
     29228.83	0.11462	1646704.0	1203765.0	597775.0	0.313322	0.699995
     29229.32	0.10468	1482616.0	1083710.0	536202.0	0.313418	0.703635
     29229.81	0.14135	2036463.0	1487485.0	733264.0	0.314128	0.707336
     29230.31	0.12196	1683497.0	1229377.0	603653.0	0.314366	0.711263
     29230.80	0.15062	2137104.0	1559942.0	763273.0	0.314803	0.714788
     29231.29	0.14584	2070208.0	1510674.0	735910.0	0.315093	0.719203
     29231.78	0.14415	2043609.0	1490805.0	723697.0	0.315401	0.722699
     29232.27	0.095043	1352761.0	986183.0	476807.0	0.316061	0.726730
     29232.76	0.13435	1929682.0	1406258.0	676913.0	0.316423	0.731145
     29233.25	0.13115	1892996.0	1379372.0	661963.0	0.316532	0.734174
     29233.75	0.13299	1898963.0	1382559.0	661119.0	0.317372	0.737758
     29234.24	0.14017	1956405.0	1423635.0	678670.0	0.317895	0.740834
     29234.73	0.13449	1893336.0	1377134.0	654946.0	0.318336	0.743207
     29235.22	0.20332	2881823.0	2094965.0	993438.0	0.318886	0.746120
     29235.71	0.090847	1292824.0	939286.0	444747.0	0.319464	0.747614
     29236.20	0.080515	1132208.0	822374.0	388488.0	0.319730	0.749933
     29236.69	0.12109	1695680.0	1231265.0	581302.0	0.320042	0.750527
     29237.19	0.13263	1929719.0	1400580.0	660568.0	0.320488	0.751542
     29237.68	0.12042	1725979.0	1252395.0	590779.0	0.320737	0.751371
     29238.17	0.12225	1756962.0	1274454.0	601433.0	0.321068	0.750958
     29238.66	0.12371	1771323.0	1284278.0	606474.0	0.321530	0.750290
     29239.15	0.15208	2180648.0	1580243.0	747747.0	0.322043	0.748269
     29239.64	0.10280	1491445.0	1081034.0	512260.0	0.321827	0.746841
     29240.14	0.11636	1654657.0	1198376.0	569594.0	0.322626	0.743799
     29240.63	0.12303	1715668.0	1242525.0	591989.0	0.322657	0.741413
     29241.12	0.11562	1607746.0	1164406.0	556410.0	0.322622	0.738461
     29241.61	0.12018	1689397.0	1223280.0	586515.0	0.322836	0.735093
     29242.10	0.13014	1841019.0	1332939.0	641350.0	0.322933	0.731566
     29242.59	0.11231	1581359.0	1144681.0	553010.0	0.323159	0.727505
     29243.09	0.12587	1794706.0	1299082.0	629786.0	0.323183	0.724033
     29243.58	0.12016	1713758.0	1240271.0	603812.0	0.323359	0.719822
     29244.07	0.12106	1723015.0	1246535.0	609613.0	0.323708	0.715299
     29244.56	0.12403	1788640.0	1294016.0	635364.0	0.323705	0.711308
     29245.05	0.13274	1920962.0	1389759.0	684808.0	0.323696	0.707747
     29245.55	0.13369	1943363.0	1405606.0	695546.0	0.323951	0.703527
     29246.04	0.12664	1844787.0	1334263.0	662919.0	0.323985	0.699482
     29246.53	0.12510	1809832.0	1308826.0	652976.0	0.324103	0.695345
     29247.02	0.13654	1994056.0	1441848.0	721874.0	0.324245	0.691830
     29247.51	0.11676	1696961.0	1227263.0	616668.0	0.324053	0.688211
     29248.00	0.12502	1854613.0	1341087.0	675881.0	0.324196	0.685219
     29248.50	0.12469	1798904.0	1300345.0	657707.0	0.324548	0.681625
     29248.99	0.12529	1851246.0	1338487.0	679049.0	0.324319	0.678602
     29249.48	0.12541	1834092.0	1325558.0	674205.0	0.324716	0.676055
     29249.97	0.12631	1845170.0	1333883.0	680066.0	0.324477	0.673660
     29250.46	0.13667	1951734.0	1410716.0	721122.0	0.324621	0.671044
     29250.96	0.11897	1710843.0	1236358.0	633395.0	0.324816	0.668831
     29251.45	0.12330	1771465.0	1280133.0	657061.0	0.324843	0.666942
     29251.94	0.12858	1854523.0	1339934.0	688591.0	0.325007	0.665728
     29252.43	0.13560	1946566.0	1406367.0	723475.0	0.325057	0.664699
     29252.92	0.12488	1803374.0	1303151.0	670926.0	0.324874	0.663882
     29253.42	0.12951	1880516.0	1358690.0	699941.0	0.325025	0.663280
     29253.91	0.13138	1914149.0	1383111.0	712752.0	0.324938	0.662957
     29254.40	0.14849	2125997.0	1536465.0	791900.0	0.324757	0.662804
     29254.89	0.10656	1552653.0	1122252.0	577982.0	0.324628	0.663550
     29255.39	0.12142	1789668.0	1293126.0	665660.0	0.324968	0.664039
     29255.88	0.12626	1851911.0	1338054.0	688264.0	0.325002	0.664799
     29256.37	0.11927	1728144.0	1248912.0	642052.0	0.324775	0.665359
     29256.86	0.13429	1948781.0	1408583.0	722709.0	0.324620	0.667333
     29257.35	0.11757	1691647.0	1223334.0	626754.0	0.324123	0.668781
     29257.85	0.13151	1888982.0	1366055.0	698895.0	0.324111	0.670182
     29258.34	0.18338	2685733.0	1942637.0	992318.0	0.323907	0.671758
     29258.83	0.099193	1434092.0	1037053.0	528867.0	0.324149	0.673401
     29259.32	0.10094	1465810.0	1060380.0	539386.0	0.323781	0.675951
     29259.82	0.10893	1567636.0	1134608.0	575567.0	0.323282	0.678687
     29260.31	0.096645	1371199.0	992506.0	502176.0	0.323208	0.681282
     29260.80	0.11065	1595508.0	1155128.0	582761.0	0.322981	0.684189
     29261.29	0.15102	2193504.0	1588409.0	798985.0	0.322767	0.687146
     29261.79	0.14483	2070645.0	1500556.0	752207.0	0.322024	0.690579
     29262.28	0.13869	2007411.0	1454800.0	727436.0	0.321977	0.693098
     29262.77	0.087061	1270052.0	920443.0	458863.0	0.321958	0.696103
     29263.26	0.075124	1094440.0	793445.0	393946.0	0.321614	0.700170
     29263.75	0.11659	1689604.0	1225593.0	606885.0	0.321069	0.702841
     29264.25	0.12334	1771646.0	1285423.0	634282.0	0.320821	0.706349
     29264.74	0.13296	1918616.0	1392635.0	684936.0	0.320406	0.709628
     29265.23	0.16000	2323170.0	1686936.0	826763.0	0.320019	0.713151
     29265.72	0.12165	1771832.0	1286734.0	628791.0	0.319907	0.716064
     29266.22	0.13409	1951187.0	1418165.0	690534.0	0.319074	0.719654
     29266.71	0.13175	1901621.0	1382273.0	671103.0	0.318977	0.722562
     29267.20	0.11485	1674943.0	1217532.0	589418.0	0.318953	0.725446
     29267.70	0.12522	1836438.0	1335534.0	645105.0	0.318497	0.727673
     29268.19	0.12434	1786692.0	1299394.0	625846.0	0.318468	0.730549
     29268.68	0.12561	1817045.0	1322309.0	635877.0	0.317832	0.732130
     29269.17	0.14081	2012154.0	1464438.0	702399.0	0.317734	0.734725
     29269.67	0.13007	1900738.0	1383457.0	662751.0	0.317657	0.735941
     29270.16	0.13282	1925952.0	1402543.0	670702.0	0.317133	0.737717
     29270.65	0.13715	1993876.0	1452294.0	694033.0	0.316936	0.738380
     29271.14	0.12221	1775965.0	1294165.0	618166.0	0.316478	0.738864
     29271.64	0.13429	1975518.0	1439786.0	687222.0	0.316336	0.739592
     29272.13	0.13042	1919190.0	1398673.0	667776.0	0.316379	0.739326
     29272.62	0.13669	2030580.0	1480143.0	706282.0	0.316183	0.739879
     29273.11	0.13217	1930013.0	1407118.0	672073.0	0.315983	0.738932
     29273.61	0.13216	1919112.0	1399530.0	669135.0	0.315726	0.737906
     29274.10	0.12385	1794449.0	1309010.0	626291.0	0.315427	0.737211
     29274.59	0.12250	1787828.0	1304129.0	624625.0	0.315466	0.736139
     29275.09	0.12638	1855815.0	1353861.0	649212.0	0.315363	0.734956
     29275.58	0.12866	1893909.0	1382199.0	663920.0	0.314967	0.733269
     29276.07	0.12721	1806543.0	1318410.0	634449.0	0.314989	0.731425
     29276.56	0.12635	1865969.0	1361529.0	656017.0	0.315172	0.730177
     29277.06	0.12691	1839292.0	1342158.0	648014.0	0.315102	0.728122
     29277.55	0.12402	1795820.0	1310917.0	633847.0	0.314735	0.726675
     29278.04	0.12466	1785395.0	1303404.0	632080.0	0.314660	0.723719
     29278.54	0.12445	1820815.0	1329265.0	645498.0	0.314658	0.722359
     29279.03	0.11708	1718920.0	1254946.0	610782.0	0.314604	0.720108
     29279.52	0.12562	1844001.0	1346138.0	656184.0	0.314698	0.718554
     29280.02	0.12676	1856684.0	1356123.0	662485.0	0.314162	0.716387
     29280.51	0.12139	1768821.0	1291854.0	632264.0	0.314235	0.714527
     29281.00	0.12391	1818012.0	1327965.0	651279.0	0.314096	0.712465
     29281.49	0.11416	1644721.0	1201264.0	590272.0	0.314196	0.710546
     29281.99	0.11599	1658059.0	1210964.0	596119.0	0.314231	0.708732
     29282.48	0.12351	1779013.0	1299814.0	640626.0	0.313838	0.707531
     29282.97	0.13336	1927744.0	1408566.0	695337.0	0.313778	0.705931
     29283.47	0.13016	1890992.0	1381672.0	683066.0	0.313807	0.704458
     29283.96	0.12724	1825073.0	1333445.0	660308.0	0.313854	0.702815
     29284.45	0.13219	1942834.0	1419683.0	703849.0	0.313714	0.701625
     29284.95	0.14842	2156490.0	1575860.0	782415.0	0.313681	0.700171
     29285.44	0.11536	1640619.0	1199100.0	595977.0	0.313502	0.699124
     29285.93	0.11426	1631261.0	1192083.0	593202.0	0.313651	0.697922
     29286.43	0.11901	1702681.0	1244291.0	619717.0	0.313638	0.697058
     29286.92	0.12855	1848647.0	1351195.0	673860.0	0.313465	0.695722
     29287.41	0.12907	1855260.0	1356085.0	676659.0	0.313423	0.695190
     29287.91	0.12259	1750198.0	1279470.0	638594.0	0.313283	0.694932
     29288.40	0.14164	2054746.0	1501952.0	750469.0	0.313387	0.693823
     29288.89	0.13005	1870675.0	1367571.0	683358.0	0.313263	0.693773
     29289.39	0.10377	1495589.0	1093385.0	546774.0	0.313242	0.692998
     29289.88	0.13716	1962255.0	1434899.0	717974.0	0.313000	0.692416
     29290.37	0.11660	1709079.0	1249479.0	625298.0	0.313228	0.692254
     29290.87	0.12935	1865188.0	1363826.0	682555.0	0.313068	0.692206
     29291.36	0.13014	1888081.0	1380703.0	691447.0	0.312968	0.691562
     29291.85	0.12845	1840600.0	1345610.0	673568.0	0.313244	0.692014
     29292.35	0.14393	2072917.0	1515609.0	758962.0	0.313139	0.691621
     29292.84	0.12377	1779602.0	1301287.0	651766.0	0.313036	0.691423
     29293.33	0.11724	1678104.0	1226217.0	614281.0	0.313731	0.691237
     29293.83	0.12655	1842420.0	1346311.0	674106.0	0.313712	0.691736
     29294.32	0.11690	1668733.0	1219612.0	610763.0	0.313532	0.691579
     29294.81	0.13079	1893767.0	1383792.0	692433.0	0.313740	0.692371
     29295.31	0.12304	1775132.0	1297260.0	648992.0	0.313620	0.692589
     29295.80	0.12505	1799452.0	1314999.0	657769.0	0.313646	0.692737
     29296.29	0.13545	1967341.0	1437585.0	718749.0	0.313718	0.693208
     29296.79	0.10673	1485123.0	1085111.0	542179.0	0.313815	0.693841
     29297.28	0.10965	1558541.0	1138509.0	568607.0	0.314031	0.694285
     29297.77	0.11606	1663061.0	1215117.0	606736.0	0.313820	0.694502
     29298.27	0.12189	1771098.0	1294084.0	645498.0	0.313797	0.695536
     29298.76	0.11125	1586503.0	1158727.0	577378.0	0.314210	0.696580
     29299.26	0.14267	2050617.0	1497007.0	746083.0	0.314673	0.696386
     29299.75	0.12476	1765664.0	1289062.0	642045.0	0.314612	0.697012
     29300.24	0.13271	1862973.0	1360093.0	676220.0	0.314621	0.698790
     29300.74	0.10961	1510308.0	1102377.0	547887.0	0.314845	0.699155
     29301.23	0.091913	1289649.0	941174.0	467502.0	0.314997	0.699724
     29301.72	0.11288	1591237.0	1161532.0	576330.0	0.314772	0.700815
     29302.22	0.13285	1900393.0	1386473.0	687407.0	0.315298	0.701592
     29302.71	0.12352	1732698.0	1264191.0	626245.0	0.315247	0.702446
     29303.21	0.17556	2475324.0	1805883.0	893557.0	0.315322	0.703595
     29303.70	0.16448	2346638.0	1712330.0	846579.0	0.315129	0.704407
     29304.19	0.089326	1256154.0	915932.0	452790.0	0.315868	0.704514
     29304.69	0.085989	1209625.0	882276.0	435482.0	0.315561	0.706051
     29305.18	0.13327	1893436.0	1380741.0	681102.0	0.315773	0.706664
     29305.67	0.13175	1864315.0	1359965.0	670325.0	0.315435	0.707452
     29306.17	0.12558	1734428.0	1264749.0	622913.0	0.315804	0.708222
     29306.66	0.13656	1930983.0	1408044.0	692840.0	0.315828	0.709158
     29307.16	0.14107	1982733.0	1445843.0	710987.0	0.315784	0.709794
     29307.65	0.17520	2401566.0	1751265.0	860492.0	0.315783	0.710589
     29308.14	0.086099	1206487.0	879695.0	431802.0	0.315893	0.711608
     29308.64	0.10934	1566847.0	1142213.0	560488.0	0.316098	0.711915
     29309.13	0.13361	1868118.0	1362042.0	667773.0	0.315946	0.712792
     29309.63	0.13763	1929054.0	1405979.0	689696.0	0.316296	0.712238
     29310.12	0.13510	1906039.0	1389585.0	680935.0	0.316022	0.713294
     29310.61	0.14269	1998274.0	1456509.0	713318.0	0.316241	0.713870
     29311.11	0.12952	1814570.0	1322657.0	647427.0	0.316206	0.714392
     29311.60	0.13957	1981053.0	1444202.0	706904.0	0.316072	0.714417
     29312.10	0.11428	1614161.0	1176935.0	575747.0	0.315902	0.715001
     29312.59	0.12719	1803188.0	1314311.0	642896.0	0.316244	0.715085
     29313.08	0.12282	1698335.0	1237633.0	605098.0	0.316448	0.715566
     29313.58	0.12601	1754729.0	1279039.0	625228.0	0.316205	0.715748
     29314.07	0.12002	1702385.0	1240868.0	606186.0	0.316219	0.716380
     29314.57	0.12972	1823475.0	1328891.0	649242.0	0.316399	0.716295
     29315.06	0.12607	1762754.0	1284820.0	627707.0	0.316259	0.716300
     29315.56	0.13068	1832007.0	1335099.0	652045.0	0.316407	0.716647
     29316.05	0.12257	1734467.0	1264036.0	617481.0	0.316390	0.716417
     29316.54	0.12326	1718222.0	1252509.0	611805.0	0.316141	0.716490
     29317.04	0.12225	1698509.0	1238028.0	604721.0	0.316231	0.716508
     29317.53	0.12530	1746629.0	1272876.0	621639.0	0.316409	0.716675
     29318.03	0.12713	1813690.0	1321523.0	645355.0	0.316579	0.716740
     29318.52	0.11610	1608814.0	1172575.0	572918.0	0.316295	0.716215
     29319.02	0.11757	1634689.0	1191140.0	582159.0	0.316542	0.715923
     29319.51	0.13005	1807490.0	1317267.0	643355.0	0.316380	0.716618
     29320.00	0.11331	1576740.0	1148687.0	561248.0	0.316740	0.716212
     29320.50	0.11667	1620817.0	1181153.0	577272.0	0.316439	0.715933
     29320.99	0.12608	1758169.0	1281188.0	626580.0	0.316485	0.715267
     29321.49	0.13136	1838238.0	1339790.0	654946.0	0.316295	0.715715
     29321.98	0.12490	1734112.0	1263752.0	618183.0	0.316410	0.715056
     29322.48	0.12904	1837734.0	1339114.0	655093.0	0.316525	0.714986
     29322.97	0.12789	1810999.0	1319635.0	645708.0	0.316523	0.714763
     29323.47	0.14034	1955440.0	1425120.0	697944.0	0.316359	0.713872
     29323.96	0.12140	1678451.0	1223127.0	599384.0	0.316461	0.713264
     29324.45	0.12507	1748300.0	1274523.0	624181.0	0.316072	0.713887
     29324.95	0.12339	1725084.0	1257041.0	616220.0	0.316515	0.712912
     29325.44	0.13204	1881295.0	1370875.0	672390.0	0.316511	0.712366
     29325.94	0.12827	1796618.0	1309663.0	642694.0	0.316136	0.711856
     29326.43	0.11222	1589501.0	1158557.0	568951.0	0.316245	0.711136
     29326.93	0.14446	1993362.0	1452970.0	713519.0	0.316213	0.711156
     29327.42	0.12020	1689698.0	1231816.0	605472.0	0.316060	0.710236
     29327.92	0.12337	1753097.0	1277857.0	628049.0	0.316199	0.710322
     29328.41	0.12482	1751071.0	1276949.0	628108.0	0.315754	0.709517
     29328.91	0.11993	1661405.0	1211374.0	596286.0	0.315908	0.708790
     29329.40	0.13725	1915454.0	1396681.0	687970.0	0.315856	0.708109
     29329.89	0.13179	1855853.0	1353117.0	666894.0	0.315934	0.707535
     29330.39	0.14328	2016395.0	1469808.0	724564.0	0.316179	0.707317
     29330.88	0.13414	1867030.0	1361405.0	671602.0	0.315832	0.706607
     29331.38	0.11106	1551931.0	1131521.0	558321.0	0.315937	0.706384
     29331.87	0.11535	1632670.0	1190662.0	587751.0	0.315707	0.705961
     29332.37	0.12574	1762118.0	1285268.0	634787.0	0.315549	0.705433
     29332.86	0.11589	1636454.0	1193364.0	589621.0	0.315755	0.705052
     29333.36	0.13765	1970180.0	1436985.0	710304.0	0.315578	0.704609
     29333.85	0.11978	1662028.0	1212235.0	599573.0	0.315573	0.704003
     29334.35	0.12207	1709102.0	1246354.0	616514.0	0.315746	0.703897
     29334.84	0.13573	1912032.0	1394702.0	690534.0	0.315486	0.702971
     29335.34	0.10860	1539033.0	1122781.0	555852.0	0.315346	0.703062
     29335.83	0.11616	1618036.0	1180694.0	584869.0	0.315111	0.702470
     29336.33	0.12407	1741280.0	1270634.0	629895.0	0.315104	0.701718
     29336.82	0.11208	1589005.0	1159216.0	574603.0	0.315364	0.701820
     29337.32	0.12456	1764543.0	1287495.0	638353.0	0.315193	0.701562
     29337.81	0.11140	1549672.0	1130996.0	560933.0	0.314945	0.701252
     29338.31	0.10988	1544024.0	1126905.0	559165.0	0.314917	0.700786
     29338.80	0.13891	1981493.0	1446179.0	717955.0	0.314926	0.700273
     29339.30	0.12314	1703697.0	1243578.0	617400.0	0.314808	0.700231
     29339.79	0.10885	1531275.0	1117611.0	555047.0	0.314907	0.699896
     29340.29	0.10697	1469080.0	1072776.0	533078.0	0.314387	0.699337
     29340.78	0.12705	1798614.0	1313271.0	652423.0	0.314495	0.699583
     29341.28	0.12464	1762089.0	1286101.0	639271.0	0.314885	0.699042
     29341.77	0.12702	1792659.0	1308821.0	650876.0	0.314573	0.698563
     29342.27	0.16329	2323622.0	1696660.0	843221.0	0.314466	0.699188
     29342.76	0.14533	2052042.0	1498196.0	744880.0	0.314574	0.698794
     29343.26	0.12329	1741604.0	1271954.0	632719.0	0.314252	0.698283
     29343.75	0.090336	1260510.0	920448.0	457763.0	0.314411	0.698509
     29344.25	0.13261	1865963.0	1363036.0	677697.0	0.314063	0.698770
     29344.74	0.12764	1821368.0	1330426.0	661498.0	0.314089	0.698748
     29345.24	0.13130	1859371.0	1358008.0	675689.0	0.314219	0.698041
     29345.73	0.12576	1784999.0	1303897.0	649008.0	0.314060	0.697668
     29346.23	0.13292	1865305.0	1362573.0	678238.0	0.314050	0.697632
     29346.72	0.15416	2196458.0	1604692.0	798127.0	0.313914	0.698419
     29347.22	0.11954	1702839.0	1244507.0	619117.0	0.313557	0.698200
     29347.72	0.11738	1634720.0	1194782.0	594335.0	0.313508	0.698276
     29348.21	0.13815	1957740.0	1430934.0	711851.0	0.313463	0.698214
     29348.71	0.13737	1927338.0	1408150.0	700322.0	0.313863	0.698492
     29349.20	0.13622	1947700.0	1423642.0	708144.0	0.313431	0.698326
     29349.70	0.13260	1852530.0	1354209.0	673957.0	0.313335	0.697806
     29350.19	0.13064	1822473.0	1332380.0	662641.0	0.313228	0.698489
     29350.69	0.14288	1978640.0	1446557.0	719405.0	0.313223	0.698517
     29351.18	0.11727	1655872.0	1210977.0	602140.0	0.312900	0.698693
     29351.68	0.11926	1686566.0	1233471.0	612891.0	0.312862	0.699400
     29352.17	0.12950	1834400.0	1341577.0	666725.0	0.312872	0.699223
     29352.67	0.12770	1824141.0	1333892.0	663015.0	0.313008	0.699059
     29353.16	0.11773	1680913.0	1229219.0	610765.0	0.312958	0.699422
     29353.66	0.12491	1773704.0	1297554.0	644398.0	0.312589	0.699920
     29354.16	0.12160	1732506.0	1267410.0	629565.0	0.312593	0.699702
     29354.65	0.13613	1927948.0	1410751.0	700572.0	0.312334	0.699980
     29355.15	0.12350	1748989.0	1279459.0	635320.0	0.312601	0.700064
     29355.64	0.12239	1750366.0	1280463.0	635502.0	0.312603	0.700562
     29356.14	0.12574	1774595.0	1298565.0	644494.0	0.312312	0.700550
     29356.63	0.12602	1803536.0	1319884.0	654970.0	0.312205	0.700710
     29357.13	0.12878	1789779.0	1310057.0	649653.0	0.312022	0.701388
     29357.63	0.12697	1811201.0	1326024.0	657888.0	0.311805	0.700906
     29358.12	0.11594	1650953.0	1208654.0	599365.0	0.311845	0.701392
     29358.62	0.12274	1747270.0	1279289.0	634010.0	0.311750	0.701995
     29359.11	0.11593	1640710.0	1201327.0	595502.0	0.311702	0.701777
     29359.61	0.11810	1654476.0	1211040.0	599817.0	0.312005	0.702610
     29360.10	0.12374	1777683.0	1302026.0	644918.0	0.311389	0.702554
     29360.60	0.11252	1589072.0	1163640.0	576379.0	0.311597	0.702543
     29361.09	0.14684	2077333.0	1521259.0	753053.0	0.311547	0.703158
     29361.59	0.11963	1688337.0	1236785.0	612222.0	0.311229	0.703176
     29362.09	0.11885	1696879.0	1243092.0	615480.0	0.311189	0.702955
     29362.58	0.13736	1958821.0	1435187.0	709790.0	0.311048	0.704081
     29363.08	0.13145	1841889.0	1349712.0	667545.0	0.310900	0.704040
     29363.57	0.12546	1755994.0	1286644.0	636566.0	0.310998	0.703704
     29364.07	0.13227	1907446.0	1397885.0	691093.0	0.310805	0.704441
     29364.57	0.12456	1749026.0	1281537.0	633684.0	0.310999	0.704265
     29365.06	0.11301	1593724.0	1167998.0	577562.0	0.310782	0.704231
     29365.56	0.12616	1769669.0	1297109.0	641258.0	0.310655	0.704461
     29366.05	0.13283	1888042.0	1383711.0	684308.0	0.310771	0.704116
     29366.55	0.11621	1619154.0	1187089.0	586900.0	0.310400	0.704405
     29367.05	0.13163	1883621.0	1380821.0	682634.0	0.310518	0.704475
     29367.54	0.12418	1746209.0	1279874.0	632915.0	0.310686	0.704181
     29368.04	0.12900	1830469.0	1342314.0	663424.0	0.310177	0.704736
     29368.53	0.13223	1889592.0	1385718.0	685046.0	0.310143	0.704488
     29369.03	0.13333	1904903.0	1397071.0	690834.0	0.310053	0.704234
     29369.53	0.11826	1681108.0	1233188.0	609945.0	0.309850	0.703989
     29370.02	0.13566	1928586.0	1414631.0	699576.0	0.309918	0.704150
     29370.52	0.12233	1751503.0	1284740.0	635428.0	0.309918	0.704013
     29371.01	0.12991	1833371.0	1344722.0	665607.0	0.309969	0.703243
     29371.51	0.12923	1804864.0	1324028.0	655129.0	0.309807	0.703602
     29372.01	0.12351	1735788.0	1273497.0	630484.0	0.309695	0.703034
     29372.50	0.13307	1870547.0	1372719.0	679597.0	0.309437	0.703049
     29373.00	0.12694	1801808.0	1321750.0	654350.0	0.309834	0.703070
     29373.49	0.12171	1711515.0	1255552.0	621703.0	0.309804	0.702868
     29373.99	0.12892	1839385.0	1349529.0	668708.0	0.309676	0.702163
     29374.49	0.12251	1681960.0	1233906.0	611315.0	0.309775	0.702328
     29374.98	0.12273	1710254.0	1254623.0	621960.0	0.309807	0.701715
     29375.48	0.11660	1637026.0	1201377.0	595678.0	0.309413	0.701523
     29375.98	0.12169	1696395.0	1244752.0	617484.0	0.309569	0.701038
     29376.47	0.12092	1701002.0	1248558.0	619554.0	0.309228	0.700745
     29376.97	0.12021	1684507.0	1235862.0	613085.0	0.309704	0.701020
     29377.46	0.11624	1618402.0	1187656.0	589642.0	0.309458	0.700221
     29377.96	0.12383	1726046.0	1266533.0	629071.0	0.309550	0.699794
     29378.46	0.11420	1598497.0	1172730.0	582585.0	0.309729	0.699615
     29378.95	0.13733	1904106.0	1397103.0	694406.0	0.309612	0.699099
     29379.45	0.10943	1529797.0	1122675.0	558291.0	0.309421	0.698589
     29379.95	0.095695	1337117.0	981274.0	488385.0	0.309419	0.697748
     29380.44	0.13439	1875718.0	1376247.0	684746.0	0.309631	0.698068
     29380.94	0.11334	1590270.0	1167287.0	580992.0	0.309222	0.697701
     29381.44	0.13384	1884239.0	1382782.0	688824.0	0.309427	0.696867
     29381.93	0.10616	1516885.0	1113381.0	554766.0	0.309258	0.696610
     29382.43	0.14849	2103079.0	1543334.0	769451.0	0.309457	0.696023
     29382.93	0.13613	1920206.0	1409002.0	703022.0	0.309551	0.695249
     29383.42	0.13364	1876806.0	1377268.0	687264.0	0.309470	0.695139
     29383.92	0.11503	1599261.0	1173693.0	586145.0	0.309386	0.694343
     29384.41	0.11935	1672617.0	1227450.0	613231.0	0.309451	0.693952
     29384.91	0.12560	1801210.0	1321825.0	660801.0	0.309445	0.693316
     29385.41	0.14097	2008589.0	1473960.0	737149.0	0.309480	0.692918
     29385.90	0.12310	1752931.0	1286415.0	643928.0	0.309430	0.692028
     29386.40	0.12947	1828975.0	1341822.0	671733.0	0.309727	0.691923
     29386.90	0.13682	1945569.0	1428328.0	715098.0	0.309050	0.691840
     29387.39	0.13286	1902663.0	1396347.0	699765.0	0.309395	0.690870
     29387.89	0.12509	1775639.0	1303234.0	653294.0	0.309311	0.690577
     29388.39	0.12936	1852144.0	1359018.0	681416.0	0.309582	0.690345
     29388.88	0.12836	1828947.0	1341896.0	673516.0	0.309657	0.689327
     29389.38	0.13820	1921284.0	1410067.0	707789.0	0.309356	0.689246
     29389.88	0.13188	1876891.0	1377868.0	691838.0	0.309079	0.688941
     29390.37	0.13289	1901175.0	1395401.0	701361.0	0.309290	0.687914
     29390.87	0.13519	1953193.0	1433525.0	720396.0	0.309329	0.688091
     29391.37	0.13758	1971184.0	1446959.0	727429.0	0.309170	0.687703
     29391.87	0.12210	1750382.0	1284845.0	646658.0	0.309196	0.686576
     29392.36	0.12286	1756959.0	1289867.0	649236.0	0.309045	0.686498
     29392.86	0.13224	1856508.0	1362869.0	686223.0	0.309105	0.686145
     29393.36	0.12694	1800759.0	1321493.0	665648.0	0.309446	0.685756
     29393.85	0.12784	1792900.0	1316265.0	663167.0	0.309036	0.685527
     29394.35	0.12437	1776829.0	1304266.0	657681.0	0.309190	0.684676
     29394.85	0.12282	1699896.0	1247883.0	629354.0	0.309119	0.684510
     29395.34	0.13741	1949593.0	1431362.0	722167.0	0.308994	0.684125
     29395.84	0.11542	1618154.0	1187979.0	599255.0	0.309032	0.684322
     29396.34	0.12656	1798201.0	1320167.0	666369.0	0.309028	0.683670
     29396.83	0.12389	1768833.0	1298692.0	656020.0	0.308962	0.682922
     29397.33	0.12576	1785884.0	1311182.0	662518.0	0.308985	0.682637
     29397.83	0.12102	1711786.0	1257196.0	635361.0	0.308653	0.682446
     29398.33	0.12460	1740756.0	1278483.0	646159.0	0.308645	0.682384
     29398.82	0.11728	1639927.0	1204758.0	608977.0	0.308373	0.682253
     29399.32	0.13378	1850496.0	1358727.0	687105.0	0.308905	0.681816
     29399.82	0.10939	1520931.0	1116882.0	564615.0	0.308782	0.682152
     29400.31	0.11907	1659603.0	1218647.0	616561.0	0.308837	0.681339
     29400.81	0.12561	1759037.0	1292130.0	653500.0	0.308474	0.681705
     29401.31	0.11533	1637296.0	1202260.0	608293.0	0.308843	0.681302
     29401.80	0.12512	1767214.0	1297836.0	656940.0	0.308706	0.680861
     29402.30	0.12014	1685511.0	1238109.0	626577.0	0.308484	0.681069
     29402.80	0.12872	1799211.0	1321877.0	669173.0	0.308296	0.680765
     29403.30	0.13220	1883182.0	1383454.0	700434.0	0.308380	0.680638
     29403.79	0.12685	1798968.0	1321504.0	669085.0	0.308443	0.680615
     29404.29	0.13064	1858464.0	1365054.0	691300.0	0.308556	0.680375
     29404.79	0.12422	1742374.0	1280105.0	648282.0	0.308306	0.680372
     29405.29	0.12914	1838820.0	1351080.0	684252.0	0.308220	0.680333
     29405.78	0.12702	1800727.0	1323146.0	670150.0	0.308178	0.680266
     29406.28	0.12489	1781946.0	1309357.0	663011.0	0.308170	0.680500
     29406.78	0.12689	1827237.0	1342491.0	679932.0	0.308278	0.680289
     29407.27	0.12425	1772705.0	1302615.0	659937.0	0.308133	0.679985
     29407.77	0.11669	1651518.0	1213534.0	614837.0	0.308158	0.679935
     29408.27	0.13013	1831466.0	1345754.0	681573.0	0.308162	0.680306
     29408.77	0.11989	1706546.0	1254038.0	635129.0	0.308103	0.680296
     29409.26	0.14267	2018224.0	1482880.0	751044.0	0.308232	0.680277
     29409.76	0.11847	1700041.0	1249652.0	632866.0	0.307787	0.680362
     29410.26	0.13472	1907675.0	1401997.0	710033.0	0.307988	0.680341
     29410.76	0.13603	1953356.0	1435705.0	727149.0	0.307893	0.680280
     29411.25	0.13047	1859931.0	1367286.0	692287.0	0.307712	0.680582
     29411.75	0.12891	1824803.0	1341439.0	679083.0	0.307729	0.680755
     29412.25	0.12093	1735864.0	1276467.0	646479.0	0.307409	0.680311
     29412.75	0.12775	1790141.0	1315986.0	666224.0	0.307708	0.680716
     29413.24	0.12501	1775859.0	1305461.0	660718.0	0.307728	0.680984
     29413.74	0.12669	1792316.0	1318061.0	667063.0	0.307347	0.681033
     29414.24	0.12078	1689247.0	1241774.0	628586.0	0.307742	0.680823
     29414.74	0.12572	1787699.0	1314282.0	665182.0	0.307639	0.680985
     29415.23	0.13476	1902560.0	1398956.0	707897.0	0.307474	0.681183
     29415.73	0.13082	1837093.0	1351006.0	683385.0	0.307335	0.681546
     29416.23	0.11704	1629852.0	1198593.0	606016.0	0.307341	0.681997
     29416.73	0.12543	1790726.0	1316716.0	665814.0	0.307480	0.681886
     29417.22	0.10921	1589440.0	1168951.0	591350.0	0.307275	0.681454
     29417.72	0.12620	1768027.0	1300486.0	657783.0	0.307126	0.681618
     29418.22	0.11407	1605923.0	1181066.0	597195.0	0.307281	0.681929
     29418.72	0.11074	1579275.0	1162019.0	587369.0	0.306807	0.682261
     29419.22	0.11267	1599961.0	1176644.0	594702.0	0.307313	0.682361
     29419.71	0.13800	1977090.0	1454658.0	735242.0	0.306855	0.682326
     29420.21	0.099574	1406038.0	1034304.0	522597.0	0.307047	0.682673
     29420.71	0.11873	1680561.0	1236223.0	624651.0	0.307067	0.682623
     29421.21	0.11385	1627909.0	1197436.0	605055.0	0.307114	0.682619
     29421.70	0.12806	1822153.0	1340497.0	677138.0	0.306978	0.682921
     29422.20	0.12062	1722370.0	1267440.0	640227.0	0.306702	0.682932
     29422.70	0.13060	1858858.0	1367820.0	691040.0	0.306744	0.682776
     29423.20	0.11879	1678396.0	1234943.0	623885.0	0.306814	0.682814
     29423.70	0.14713	2117160.0	1558160.0	786869.0	0.306570	0.683199
     29424.19	0.12696	1850872.0	1361845.0	688025.0	0.306816	0.682771
     29424.69	0.11301	1649304.0	1213344.0	612774.0	0.306973	0.683139
     29425.19	0.13424	1944449.0	1431130.0	722614.0	0.306514	0.683344
     29425.69	0.13624	1963850.0	1445133.0	730116.0	0.306705	0.682753
     29426.19	0.13328	1924385.0	1416483.0	715345.0	0.306429	0.683167
     29426.68	0.12960	1875644.0	1380512.0	697388.0	0.306498	0.682868
     29427.18	0.11055	1602542.0	1179870.0	595748.0	0.306187	0.683342
     29427.68	0.14683	2142020.0	1576889.0	796235.0	0.306295	0.683315
     29428.18	0.11885	1733028.0	1275974.0	644120.0	0.306160	0.683580
     29428.68	0.12330	1784967.0	1313859.0	663685.0	0.306431	0.682916
     29429.17	0.13991	2018498.0	1486042.0	750442.0	0.306237	0.683209
     29429.67	0.13169	1911498.0	1407215.0	710614.0	0.306275	0.683238
     29430.17	0.12779	1843575.0	1357326.0	685728.0	0.306190	0.682791
     29430.67	0.13842	1988004.0	1463442.0	739374.0	0.306340	0.682743
     29431.17	0.13472	1942113.0	1430138.0	722488.0	0.306006	0.682825
     29431.66	0.13321	1925087.0	1417099.0	716004.0	0.306359	0.682681
     29432.16	0.13259	1920441.0	1413852.0	714671.0	0.306237	0.682251
     29432.66	0.12241	1774991.0	1306864.0	660563.0	0.306165	0.682293
     29433.16	0.12981	1852481.0	1364147.0	689886.0	0.305996	0.681758
     29433.66	0.12379	1780054.0	1310669.0	662623.0	0.306106	0.682087
     29434.16	0.13445	1958806.0	1442475.0	729805.0	0.305975	0.681338
     29434.65	0.12408	1784056.0	1313552.0	664649.0	0.306155	0.681231
     29435.15	0.12297	1789363.0	1317296.0	666693.0	0.306279	0.681007
     29435.65	0.13106	1891149.0	1392271.0	704612.0	0.306248	0.681044
     29436.15	0.12303	1772949.0	1305480.0	661109.0	0.306073	0.680407
     29436.65	0.12164	1747984.0	1287343.0	652025.0	0.305883	0.680253
     29437.15	0.12711	1848741.0	1361665.0	689378.0	0.305797	0.680674
     29437.64	0.13002	1884101.0	1387325.0	702760.0	0.306073	0.680117
     29438.14	0.11860	1717492.0	1264906.0	641001.0	0.305867	0.679722
     29438.64	0.12071	1742424.0	1283354.0	650295.0	0.305800	0.679806
     29439.14	0.11447	1654700.0	1218644.0	617720.0	0.305881	0.679459
     29439.64	0.11989	1736895.0	1279066.0	648790.0	0.305969	0.678776
     29440.14	0.12633	1838218.0	1353825.0	686891.0	0.305863	0.678514
     29440.63	0.11832	1711928.0	1260758.0	639882.0	0.305907	0.678185
     29441.13	0.11365	1646878.0	1213165.0	615540.0	0.305649	0.678488
     29441.63	0.12935	1873913.0	1380326.0	700823.0	0.305709	0.677820
     29442.13	0.12808	1859294.0	1369358.0	695725.0	0.305855	0.677143
     29442.63	0.12006	1747721.0	1287349.0	654176.0	0.305728	0.676964
     29443.13	0.13782	2007559.0	1478888.0	751453.0	0.305629	0.677037
     29443.63	0.12094	1743927.0	1284639.0	653152.0	0.305662	0.676423
     29444.12	0.13892	1989483.0	1465454.0	745794.0	0.305710	0.675471
     29444.62	0.12849	1857339.0	1368536.0	696242.0	0.305403	0.675800
     29445.12	0.11620	1667206.0	1228160.0	625024.0	0.305632	0.675482
     29445.62	0.12933	1859942.0	1370260.0	697674.0	0.305545	0.675004
     29446.12	0.12297	1770566.0	1304517.0	664332.0	0.305466	0.674806
     29446.62	0.12285	1752736.0	1291438.0	658063.0	0.305422	0.674211
     29447.12	0.12711	1836523.0	1353004.0	689780.0	0.305547	0.673710
     29447.62	0.12431	1799775.0	1326171.0	676183.0	0.305366	0.673587
     29448.11	0.12223	1751177.0	1290279.0	658133.0	0.305430	0.673207
     29448.61	0.12357	1783345.0	1314112.0	670606.0	0.305330	0.672735
     29449.11	0.12853	1868689.0	1376840.0	702850.0	0.305446	0.672403
     29449.61	0.13524	1945461.0	1433605.0	732029.0	0.305307	0.672127
     29450.11	0.12156	1739745.0	1281860.0	655098.0	0.305426	0.671283
     29450.61	0.12492	1773740.0	1307111.0	668133.0	0.305271	0.671087
     29451.11	0.14101	2018744.0	1487170.0	760357.0	0.305601	0.670842
     29451.61	0.12965	1840961.0	1356708.0	694021.0	0.305227	0.670314
     29452.10	0.12926	1864533.0	1374091.0	703288.0	0.305218	0.669781
     29452.60	0.12562	1802454.0	1328851.0	680247.0	0.304834	0.669614
     29453.10	0.12491	1781222.0	1312796.0	672463.0	0.305140	0.668967
     29453.60	0.12712	1829785.0	1348998.0	691098.0	0.304836	0.668836
     29454.10	0.12830	1860305.0	1371152.0	702834.0	0.305089	0.668286
     29454.60	0.12271	1769887.0	1304802.0	668828.0	0.304864	0.668280
     29455.10	0.13496	1949104.0	1437047.0	737147.0	0.304779	0.667558
     29455.60	0.11696	1688197.0	1244739.0	638751.0	0.304735	0.667166
     29456.10	0.11351	1621620.0	1195379.0	613541.0	0.304962	0.666971
     29456.59	0.11906	1703936.0	1256056.0	645319.0	0.304964	0.665987
     29457.09	0.11881	1702417.0	1255406.0	645046.0	0.304590	0.665893
     29457.59	0.11611	1669303.0	1230807.0	632716.0	0.304736	0.665404
     29458.09	0.12455	1784944.0	1316558.0	676960.0	0.304366	0.665164
     29458.59	0.12410	1779756.0	1312417.0	675027.0	0.304606	0.664873
     29459.09	0.11827	1705450.0	1257443.0	647172.0	0.304749	0.664223
     29459.59	0.10941	1554607.0	1146417.0	590113.0	0.304581	0.664083
     29460.09	0.10815	1569134.0	1157368.0	595956.0	0.304375	0.663737
     29460.59	0.12068	1692696.0	1248510.0	643260.0	0.304372	0.663157
     29461.09	0.11605	1625424.0	1199258.0	618012.0	0.304066	0.662950
     29461.59	0.11711	1689999.0	1246836.0	642478.0	0.304119	0.663032
     29462.09	0.13050	1851936.0	1366407.0	704617.0	0.304047	0.662286
     29462.58	0.13749	1945637.0	1435076.0	740378.0	0.304372	0.661812
     29463.08	0.14855	2075601.0	1531554.0	789997.0	0.303968	0.662009
     29463.58	0.12102	1736835.0	1281723.0	661502.0	0.303859	0.661448
     29464.08	0.11028	1556051.0	1148430.0	593118.0	0.303755	0.660758
     29464.58	0.12826	1818943.0	1341845.0	693048.0	0.304210	0.660702
     29465.08	0.13090	1840762.0	1358596.0	701924.0	0.303728	0.660382
     29465.58	0.12909	1817715.0	1341919.0	693276.0	0.303480	0.660428
     29466.08	0.13612	1929097.0	1423991.0	735824.0	0.303589	0.660228
     29466.58	0.13951	1970844.0	1454983.0	752270.0	0.303468	0.659654
     29467.08	0.16743	2321645.0	1713970.0	886500.0	0.303464	0.659286
     29467.58	0.098583	1386714.0	1023847.0	529600.0	0.303370	0.659200
     29468.08	0.10579	1498722.0	1106809.0	572779.0	0.303132	0.658736
     29468.58	0.12163	1669449.0	1232682.0	638133.0	0.303301	0.658401
     29469.08	0.13964	1925914.0	1421645.0	736307.0	0.303586	0.657923
     29469.58	0.13750	1909633.0	1410268.0	730522.0	0.303131	0.657776
     29470.07	0.14273	1974870.0	1458607.0	755446.0	0.303021	0.657929
     29470.57	0.14333	2011723.0	1485755.0	769888.0	0.303069	0.657433
     29471.07	0.14293	1996564.0	1474814.0	763973.0	0.302896	0.657755
     29471.57	0.10858	1510474.0	1115614.0	578185.0	0.303019	0.657266
     29472.07	0.12683	1781565.0	1316173.0	682063.0	0.302764	0.657362
     29472.57	0.13302	1850761.0	1367025.0	708699.0	0.302960	0.656961
     29473.07	0.12737	1803367.0	1332530.0	690772.0	0.302576	0.657025
     29473.57	0.12382	1744374.0	1289041.0	668491.0	0.302497	0.656631
     29474.07	0.12614	1785210.0	1319366.0	684377.0	0.302385	0.656398
     29474.57	0.15569	2220034.0	1640321.0	850630.0	0.302631	0.656670
     29475.07	0.11843	1690395.0	1248945.0	647815.0	0.302663	0.656449
     29475.57	0.10591	1507192.0	1114049.0	577929.0	0.302247	0.656305
     29476.07	0.12003	1688630.0	1248017.0	647577.0	0.302362	0.656073
     29476.57	0.12319	1733226.0	1281309.0	664751.0	0.302102	0.656225
     29477.07	0.12632	1798456.0	1329567.0	689803.0	0.302075	0.656203
     29477.57	0.12375	1736207.0	1283620.0	666158.0	0.302019	0.655913
     29478.07	0.12491	1761132.0	1301736.0	675628.0	0.302258	0.655811
     29478.57	0.12453	1775517.0	1312910.0	681360.0	0.301846	0.655911
     29479.07	0.12117	1716256.0	1268760.0	658300.0	0.302105	0.656135
     29479.57	0.11684	1655529.0	1224350.0	635258.0	0.301711	0.656134
     29480.07	0.11202	1602088.0	1184678.0	614872.0	0.301837	0.655812
     29480.57	0.13184	1880387.0	1390725.0	721750.0	0.301652	0.655902
     29481.07	0.11609	1612271.0	1192343.0	619007.0	0.301723	0.655559
     29481.57	0.12297	1747177.0	1292120.0	670598.0	0.301717	0.655870
     29482.07	0.13325	1891518.0	1398898.0	725968.0	0.301695	0.655934
     29482.57	0.14237	2011315.0	1487937.0	772334.0	0.301398	0.655729
     29483.07	0.12472	1794021.0	1327089.0	688750.0	0.301472	0.655865
     29483.57	0.11976	1717213.0	1270424.0	659401.0	0.301352	0.655774
     29484.07	0.12958	1860333.0	1376176.0	714513.0	0.301447	0.655463
     29484.57	0.12022	1700123.0	1258327.0	653036.0	0.300918	0.655906
     29485.07	0.13834	1959360.0	1449661.0	752426.0	0.301288	0.655782
     29485.57	0.11271	1632534.0	1207769.0	626929.0	0.301359	0.655697
     29486.07	0.13558	1922829.0	1422656.0	738428.0	0.301272	0.655757
     29486.57	0.13343	1916101.0	1418052.0	735881.0	0.301008	0.655971
     29487.07	0.11895	1702831.0	1260321.0	654255.0	0.300926	0.655625
     29487.57	0.11452	1629792.0	1206339.0	626073.0	0.300862	0.655878
     29488.07	0.11964	1709793.0	1265615.0	656706.0	0.300814	0.656077
     29488.57	0.13889	1986319.0	1470433.0	763383.0	0.300726	0.655552
     29489.07	0.12644	1814118.0	1342765.0	696450.0	0.300868	0.656490
     29489.57	0.13552	1910750.0	1414318.0	734040.0	0.300848	0.655839
     29490.07	0.15439	2189194.0	1620694.0	841021.0	0.300679	0.655993
     29490.57	0.12917	1845760.0	1366169.0	708691.0	0.300881	0.656346
     29491.07	0.10192	1468292.0	1087095.0	563889.0	0.300591	0.656407
     29491.57	0.10682	1525875.0	1129601.0	586279.0	0.300704	0.655824
     29492.07	0.13524	1890168.0	1399300.0	726021.0	0.300694	0.656148
     29492.57	0.12384	1744900.0	1292183.0	670392.0	0.300364	0.656226
     29493.07	0.12675	1807022.0	1337990.0	694383.0	0.300512	0.655900
     29493.57	0.13360	1903263.0	1409215.0	731415.0	0.300537	0.655807
     29494.07	0.13710	1930971.0	1429718.0	742043.0	0.300546	0.655825
     29494.57	0.11597	1644298.0	1217404.0	631428.0	0.300593	0.656492
     29495.07	0.10732	1522247.0	1127254.0	584674.0	0.300403	0.656485
     29495.57	0.11361	1612090.0	1193604.0	619452.0	0.300554	0.655897
     29496.07	0.12347	1725785.0	1277998.0	663155.0	0.300387	0.656041
     29496.57	0.13323	1897032.0	1404914.0	728942.0	0.300314	0.656137
     29497.07	0.11944	1708089.0	1265126.0	656251.0	0.300203	0.656384
     29497.57	0.13539	1944799.0	1440655.0	747196.0	0.300061	0.656526
     29498.07	0.12545	1805457.0	1337572.0	693912.0	0.299958	0.656266
     29498.57	0.10135	1451800.0	1075461.0	558132.0	0.300055	0.655909
     29499.07	0.096350	1375753.0	1019215.0	528711.0	0.299968	0.656346
     29499.57	0.11568	1672628.0	1239682.0	643079.0	0.299541	0.656343
     29500.07	0.11635	1680576.0	1245100.0	646194.0	0.299921	0.655871
     29500.58	0.12293	1753209.0	1298820.0	674319.0	0.299992	0.655508
     29501.08	0.12635	1791330.0	1327197.0	688794.0	0.299889	0.655882
     29501.58	0.13350	1907929.0	1413616.0	733444.0	0.299867	0.656155
     29502.08	0.12501	1772756.0	1313362.0	681446.0	0.299945	0.656129
     29502.58	0.11955	1706195.0	1264289.0	656074.0	0.299756	0.655992
     29503.08	0.13176	1856130.0	1375632.0	713909.0	0.299580	0.655913
     29503.58	0.13468	1901174.0	1408894.0	731473.0	0.299667	0.655500
     29504.08	0.12894	1846334.0	1368646.0	710349.0	0.299380	0.655821
     29504.58	0.13024	1885690.0	1397260.0	725212.0	0.299781	0.655804
     29505.08	0.13166	1884314.0	1396414.0	725009.0	0.299656	0.655479
     29505.58	0.16501	2319590.0	1719079.0	892678.0	0.299602	0.655318
     29506.08	0.13118	1854810.0	1374818.0	713735.0	0.299461	0.655565
     29506.58	0.096629	1381343.0	1024367.0	531902.0	0.298981	0.655371
     29507.08	0.12975	1840792.0	1364818.0	708971.0	0.299175	0.654962
     29507.58	0.11979	1716311.0	1272622.0	660884.0	0.299098	0.655256
     29508.09	0.12895	1849244.0	1370992.0	712442.0	0.299242	0.654591
     29508.59	0.15626	2232136.0	1655409.0	860032.0	0.298911	0.654834
     29509.09	0.15901	2261940.0	1676887.0	871541.0	0.299284	0.654431
     29509.59	0.18503	2625085.0	1946194.0	1011534.0	0.299238	0.654408
     29510.09	0.10545	1491415.0	1105827.0	575032.0	0.299132	0.653923
     29510.59	0.060935	865827.0	642184.0	333795.0	0.298810	0.654348
     29511.09	0.13327	1916547.0	1421471.0	739134.0	0.298833	0.653968
     29511.59	0.12888	1848572.0	1371252.0	713128.0	0.298689	0.653819
     29512.09	0.13160	1849933.0	1372102.0	713835.0	0.298806	0.653447
     29512.59	0.12311	1775139.0	1316829.0	685122.0	0.298652	0.653385
     29513.09	0.12440	1782230.0	1321869.0	687711.0	0.298819	0.653433
     29513.60	0.13031	1864040.0	1382408.0	719241.0	0.298919	0.653386
     29514.10	0.12310	1770902.0	1313266.0	683465.0	0.298972	0.653097
     29514.60	0.11784	1688278.0	1252252.0	652061.0	0.298766	0.652561
     29515.10	0.13766	1973481.0	1464130.0	762133.0	0.298538	0.652895
     29515.60	0.12215	1753822.0	1300848.0	677670.0	0.298781	0.652111
     29516.10	0.12398	1773021.0	1315507.0	685263.0	0.298463	0.652175
     29516.60	0.12357	1774331.0	1316693.0	685692.0	0.298300	0.652450
     29517.10	0.12462	1787673.0	1326243.0	691180.0	0.298565	0.651705
     29517.60	0.12026	1738254.0	1289799.0	672308.0	0.298395	0.651525
     29518.10	0.11514	1642465.0	1218430.0	635539.0	0.298635	0.650845
     29518.61	0.12414	1770194.0	1313396.0	684986.0	0.298473	0.650973
     29519.11	0.11979	1697565.0	1259946.0	657276.0	0.298126	0.650720
     29519.61	0.12152	1741454.0	1291885.0	673853.0	0.298618	0.650846
     29520.11	0.12655	1808333.0	1341722.0	700231.0	0.298452	0.650299
     29520.61	0.13106	1851286.0	1373711.0	716980.0	0.298365	0.650223
     29521.11	0.13091	1859693.0	1379717.0	720462.0	0.298533	0.649741
     29521.61	0.11743	1680988.0	1247187.0	651425.0	0.298491	0.649484
     29522.11	0.12967	1839361.0	1364780.0	712970.0	0.298425	0.649309
     29522.62	0.13645	1942831.0	1441923.0	753370.0	0.298169	0.649176
     29523.12	0.12723	1788275.0	1327317.0	693830.0	0.298092	0.648688
     29523.62	0.13254	1891132.0	1403367.0	733766.0	0.298301	0.648439
     29524.12	0.13654	1945527.0	1443846.0	754997.0	0.298223	0.648352
     29524.62	0.11332	1618854.0	1201697.0	628853.0	0.297984	0.647592
     29525.12	0.12627	1792992.0	1330733.0	696343.0	0.298156	0.647643
     29525.62	0.10856	1548267.0	1149458.0	601866.0	0.297846	0.647011
     29526.12	0.13098	1854507.0	1376572.0	720789.0	0.298023	0.647005
     29526.63	0.12310	1751358.0	1300237.0	680701.0	0.297845	0.647179
     29527.13	0.12852	1819189.0	1350509.0	707584.0	0.297909	0.646380
     29527.63	0.12608	1786857.0	1326719.0	695518.0	0.297749	0.645807
     29528.13	0.13498	1903207.0	1413032.0	740482.0	0.297803	0.646192
     29528.63	0.12461	1757561.0	1304627.0	684406.0	0.298010	0.645121
     29529.13	0.12400	1721840.0	1278500.0	670901.0	0.297706	0.644821
     29529.64	0.14080	1974807.0	1465629.0	768898.0	0.298186	0.645081
     29530.14	0.11884	1674474.0	1243220.0	652377.0	0.297794	0.644837
     29530.64	0.12337	1751637.0	1300279.0	682616.0	0.297972	0.644402
     29531.14	0.12739	1800521.0	1336972.0	702338.0	0.297669	0.643748
     29531.64	0.12886	1803483.0	1338955.0	703787.0	0.297830	0.643169
     29532.14	0.12692	1809125.0	1343339.0	706047.0	0.297685	0.643232
     29532.64	0.12475	1747987.0	1298393.0	682752.0	0.297337	0.642751
     29533.15	0.12382	1733571.0	1287051.0	676858.0	0.297830	0.642647
     29533.65	0.12223	1721727.0	1278498.0	672744.0	0.297642	0.642076
     29534.15	0.11912	1709273.0	1269463.0	667699.0	0.297474	0.642512
     29534.65	0.12314	1745706.0	1296293.0	682262.0	0.297650	0.641850
     29535.15	0.12166	1727252.0	1282524.0	674891.0	0.297702	0.642034
     29535.65	0.12157	1703324.0	1264973.0	666330.0	0.297531	0.641021
     29536.16	0.11127	1564453.0	1161934.0	612183.0	0.297450	0.640810
     29536.66	0.12537	1772584.0	1316719.0	693636.0	0.297295	0.640951
     29537.16	0.10225	1464168.0	1087424.0	573285.0	0.297476	0.640184
     29537.66	0.12559	1773450.0	1317298.0	694758.0	0.297344	0.639774
     29538.16	0.10444	1497603.0	1112146.0	586572.0	0.297574	0.639751
     29538.67	0.11246	1597206.0	1186303.0	626039.0	0.297414	0.639184
     29539.17	0.12794	1799171.0	1336429.0	705351.0	0.297325	0.639061
     29539.67	0.12427	1747663.0	1298009.0	685477.0	0.297448	0.638472
     29540.17	0.12043	1700755.0	1263269.0	667034.0	0.297369	0.638617
     29540.67	0.13539	1898035.0	1410402.0	744860.0	0.296944	0.638434
     29541.17	0.10691	1525300.0	1132907.0	598413.0	0.297404	0.638261
     29541.68	0.15329	2139393.0	1589373.0	839839.0	0.297183	0.637885
     29542.18	0.12166	1717061.0	1276002.0	674250.0	0.296882	0.637886
     29542.68	0.12371	1763779.0	1310879.0	692997.0	0.296761	0.637428
     29543.18	0.14244	2034918.0	1512355.0	799496.0	0.296787	0.637442
     29543.68	0.13623	1928557.0	1433105.0	757919.0	0.296929	0.637022
     29544.19	0.13378	1902967.0	1414113.0	748004.0	0.296912	0.636849
     29544.69	0.13314	1884169.0	1400714.0	741336.0	0.296505	0.636283
     29545.19	0.11393	1610282.0	1197040.0	633513.0	0.296557	0.636327
     29545.69	0.12252	1735461.0	1289996.0	683066.0	0.296634	0.635803
     29546.19	0.14185	1985111.0	1475318.0	781134.0	0.296801	0.635882
     29546.70	0.12550	1755796.0	1304998.0	691094.0	0.296721	0.635681
     29547.20	0.14634	2080225.0	1545757.0	818870.0	0.296962	0.635344
     29547.70	0.14401	2036871.0	1514078.0	802088.0	0.296608	0.635344
     29548.20	0.13604	1937871.0	1440734.0	763614.0	0.296437	0.634846
     29548.71	0.11042	1560370.0	1159486.0	614966.0	0.296946	0.634165
     29549.21	0.13217	1858253.0	1381637.0	732558.0	0.296368	0.634482
     29549.71	0.13169	1855386.0	1379662.0	731486.0	0.296254	0.634516
     29550.21	0.13490	1894561.0	1408751.0	746972.0	0.296284	0.634431
     29550.71	0.12064	1701998.0	1265260.0	671209.0	0.296525	0.633952
     29551.22	0.12538	1770551.0	1316356.0	698126.0	0.296423	0.634223
     29551.72	0.12962	1838287.0	1366772.0	725312.0	0.296382	0.633605
     29552.22	0.11564	1632104.0	1213538.0	643847.0	0.296330	0.633834
     29552.72	0.12990	1838323.0	1366786.0	725335.0	0.296392	0.633584
     29553.23	0.12804	1831373.0	1361490.0	722873.0	0.296486	0.633101
     29553.73	0.12520	1773682.0	1318718.0	700037.0	0.296398	0.633282
     29554.23	0.12948	1787394.0	1329066.0	705947.0	0.296282	0.632692
     29554.73	0.12823	1808559.0	1344758.0	714294.0	0.296316	0.632675
     29555.24	0.12938	1831628.0	1362385.0	723514.0	0.295968	0.632872
     29555.74	0.11482	1590457.0	1182803.0	628647.0	0.296134	0.632072
     29556.24	0.12278	1733009.0	1289066.0	684603.0	0.295941	0.632834
     29556.74	0.11954	1674776.0	1245567.0	661914.0	0.296089	0.632210
     29557.24	0.12171	1707320.0	1269786.0	674754.0	0.296077	0.632255
     29557.75	0.12470	1769950.0	1316398.0	699784.0	0.296052	0.631883
     29558.25	0.12111	1713175.0	1274383.0	677584.0	0.295886	0.631684
     29558.75	0.11608	1619013.0	1204391.0	640173.0	0.295843	0.631991
     29559.26	0.12671	1809099.0	1345775.0	715377.0	0.295859	0.631916
     29559.76	0.13777	1916475.0	1425601.0	758328.0	0.295894	0.631233
     29560.26	0.11104	1565187.0	1164442.0	619367.0	0.295763	0.631299
     29560.76	0.13246	1865473.0	1387993.0	738499.0	0.295656	0.630994
     29561.27	0.13676	1929632.0	1435445.0	763753.0	0.295854	0.630986
     29561.77	0.12823	1807231.0	1344538.0	715372.0	0.295745	0.631003
     29562.27	0.12709	1766833.0	1314915.0	699733.0	0.295417	0.630828
     29562.77	0.12786	1820384.0	1354171.0	720297.0	0.295858	0.631281
     29563.28	0.13969	1983683.0	1476351.0	785307.0	0.295382	0.631254
     29563.78	0.16139	2313126.0	1721540.0	915791.0	0.295381	0.631186
     29564.28	0.10335	1463200.0	1088712.0	579380.0	0.295630	0.630792
     29564.78	0.061851	883220.0	657160.0	349710.0	0.295647	0.630823
     29565.29	0.14251	2032263.0	1512571.0	804887.0	0.295339	0.630864
     29565.79	0.12678	1803209.0	1342116.0	714134.0	0.295320	0.630932
     29566.29	0.13020	1855463.0	1380833.0	734971.0	0.295447	0.630611
     29566.80	0.14298	2002687.0	1490310.0	792790.0	0.295506	0.631181
     29567.30	0.14388	2035990.0	1514997.0	806356.0	0.295569	0.630643
     29567.80	0.11192	1589980.0	1183810.0	630283.0	0.294983	0.630324
     29568.30	0.11642	1642190.0	1222637.0	651090.0	0.295021	0.630117
     29568.81	0.12145	1732408.0	1289683.0	686664.0	0.295116	0.630307
     29569.31	0.12864	1807706.0	1345619.0	716606.0	0.295205	0.630083
     29569.81	0.13244	1890863.0	1407642.0	749455.0	0.295117	0.630325
     29570.32	0.13178	1875593.0	1396320.0	743611.0	0.295085	0.630077
     29570.82	0.13519	1900745.0	1414852.0	753803.0	0.295221	0.629649
     29571.32	0.12002	1675804.0	1247166.0	664430.0	0.295419	0.629700
     29571.82	0.12956	1854673.0	1380941.0	735276.0	0.294943	0.630274
     29572.33	0.12520	1754054.0	1305975.0	695608.0	0.294980	0.629919
     29572.83	0.12194	1731687.0	1289157.0	686678.0	0.295108	0.629878
     29573.33	0.12083	1709152.0	1272743.0	678211.0	0.294823	0.629471
     29573.84	0.12698	1764610.0	1314226.0	699975.0	0.294682	0.629959
     29574.34	0.11873	1675020.0	1247043.0	664811.0	0.295050	0.629028
     29574.84	0.11938	1670617.0	1244149.0	662987.0	0.294741	0.629452
     29575.35	0.11561	1600914.0	1192357.0	635715.0	0.294643	0.628937
     29575.85	0.12203	1698191.0	1264670.0	674038.0	0.294752	0.629280
     29576.35	0.11333	1591381.0	1185049.0	631600.0	0.294818	0.629283
     29576.85	0.10626	1469397.0	1094425.0	583266.0	0.294623	0.629341
     29577.36	0.12213	1693716.0	1261696.0	672648.0	0.294468	0.628990
     29577.86	0.11487	1587192.0	1182318.0	630006.0	0.294489	0.629503
     29578.36	0.11578	1628816.0	1213516.0	646714.0	0.294331	0.629373
     29578.87	0.13110	1821395.0	1356836.0	723491.0	0.294447	0.628823
     29579.37	0.11549	1581376.0	1178443.0	628445.0	0.294101	0.628701
     29579.87	0.14240	1965217.0	1464286.0	780745.0	0.294235	0.628874
     29580.38	0.12256	1710886.0	1274692.0	679605.0	0.294307	0.628948
     29580.88	0.10540	1449369.0	1079893.0	575719.0	0.294266	0.628998
     29581.38	0.12658	1753595.0	1307221.0	697073.0	0.293764	0.628769
     29581.89	0.14273	1990373.0	1482955.0	790832.0	0.294285	0.628706
     29582.39	0.12890	1732807.0	1291290.0	688753.0	0.294101	0.628514
     29582.89	0.13577	1854927.0	1382816.0	737437.0	0.293723	0.628697
     29583.40	0.13852	1898882.0	1416202.0	755646.0	0.293287	0.628161
     29583.90	0.11501	1574156.0	1174000.0	626216.0	0.293303	0.628477
     29584.40	0.12869	1767860.0	1317704.0	702935.0	0.293879	0.628382
     29584.91	0.12557	1734796.0	1293278.0	690084.0	0.293710	0.628122
     29585.41	0.12281	1695826.0	1264823.0	674945.0	0.293238	0.628056
     29585.91	0.12872	1768807.0	1318425.0	703660.0	0.293867	0.627898
     29586.42	0.12963	1759904.0	1312261.0	700428.0	0.293508	0.627815
     29586.92	0.13880	1883843.0	1404736.0	749572.0	0.293464	0.628102
     29587.42	0.13818	1896006.0	1413633.0	754496.0	0.293587	0.627868
     29587.93	0.15748	2132550.0	1590332.0	848693.0	0.293376	0.628001
     29588.43	0.12180	1657812.0	1236539.0	660102.0	0.293182	0.627677
     29588.93	0.12027	1641813.0	1224680.0	653730.0	0.293122	0.627740
     29589.44	0.11902	1631046.0	1216733.0	649634.0	0.293052	0.627516
     29589.94	0.14147	1927936.0	1438250.0	768268.0	0.293023	0.627044
     29590.45	0.13684	1873491.0	1397491.0	746038.0	0.293125	0.627657
     29590.95	0.13466	1871243.0	1396068.0	745538.0	0.292943	0.627309
     29591.45	0.12145	1692373.0	1262857.0	674470.0	0.292755	0.627205
     29591.96	0.12682	1707534.0	1273885.0	680692.0	0.292979	0.626717
     29592.46	0.11568	1596131.0	1190794.0	636244.0	0.292962	0.626793
     29592.96	0.12041	1651238.0	1232210.0	658086.0	0.292716	0.627229
     29593.47	0.12540	1742146.0	1300161.0	694810.0	0.292630	0.626605
     29593.97	0.13474	1845066.0	1376784.0	735875.0	0.292765	0.626445
     29594.48	0.12977	1774283.0	1324021.0	707966.0	0.292723	0.626033
     29594.98	0.13517	1873891.0	1398901.0	747774.0	0.292330	0.626341
     29595.48	0.11610	1586780.0	1184226.0	633315.0	0.292617	0.625877
     29595.99	0.11641	1575478.0	1176166.0	628631.0	0.292299	0.626471
     29596.49	0.12169	1649191.0	1230824.0	658482.0	0.292601	0.625502
     29596.99	0.11982	1645305.0	1228379.0	657243.0	0.292230	0.625397
     29597.50	0.11974	1667984.0	1245115.0	666186.0	0.292388	0.625414
     29598.00	0.12165	1661853.0	1240877.0	663813.0	0.292115	0.625573
     29598.51	0.11824	1605897.0	1198935.0	641298.0	0.292249	0.625695
     29599.01	0.12404	1687081.0	1259795.0	673988.0	0.292051	0.625492
     29599.51	0.13129	1789185.0	1335994.0	714985.0	0.292085	0.625169
     29600.02	0.11726	1569879.0	1172267.0	627662.0	0.292059	0.624693
     29600.52	0.12920	1745159.0	1303192.0	697746.0	0.292029	0.624717
     29601.03	0.12248	1688214.0	1260850.0	675179.0	0.291885	0.624564
     29601.53	0.13686	1848065.0	1380220.0	739027.0	0.291896	0.624664
     29602.03	0.12880	1718676.0	1283428.0	687597.0	0.292020	0.624087
     29602.54	0.12965	1749579.0	1306580.0	699747.0	0.291962	0.624449
     29603.04	0.12363	1705015.0	1273499.0	682018.0	0.291806	0.624467
     29603.55	0.13474	1880321.0	1404484.0	752413.0	0.291773	0.624140
     29604.05	0.11933	1645153.0	1228793.0	658682.0	0.291801	0.623547
     29604.55	0.13049	1831512.0	1368473.0	733554.0	0.291446	0.623550
     29605.06	0.11342	1574648.0	1176396.0	630810.0	0.291576	0.623206
     29605.56	0.13404	1877616.0	1402771.0	752084.0	0.291553	0.623357
     29606.07	0.11681	1629430.0	1217317.0	652759.0	0.291581	0.623197
     29606.57	0.12917	1795656.0	1341156.0	719226.0	0.291838	0.623112
     29607.07	0.13049	1803688.0	1347584.0	723458.0	0.291520	0.622026
     29607.58	0.13626	1892636.0	1414172.0	758436.0	0.291426	0.623041
     29608.08	0.13649	1891769.0	1413212.0	758381.0	0.291647	0.622435
     29608.59	0.12619	1735752.0	1296823.0	696501.0	0.291523	0.621603
     29609.09	0.13290	1823448.0	1362454.0	731435.0	0.291442	0.622034
     29609.60	0.12793	1776440.0	1327327.0	712701.0	0.291444	0.621860
     29610.10	0.12511	1726588.0	1290557.0	692996.0	0.291073	0.621805
     29610.60	0.13143	1842405.0	1376801.0	739743.0	0.291309	0.621215
     29611.11	0.12349	1717946.0	1283617.0	690082.0	0.291448	0.620627
     29611.61	0.12492	1720364.0	1285690.0	690812.0	0.291240	0.621183
     29612.12	0.11473	1598414.0	1194531.0	642099.0	0.291258	0.620766
     29612.62	0.12856	1785071.0	1334122.0	717468.0	0.291185	0.620300
     29613.13	0.11841	1605023.0	1199762.0	645348.0	0.291015	0.620089
     29613.63	0.12670	1750183.0	1308259.0	703763.0	0.291023	0.620011
     29614.13	0.12595	1737232.0	1298405.0	698548.0	0.291156	0.619888
     29614.64	0.11141	1534801.0	1147014.0	617248.0	0.291239	0.619646
     29615.14	0.12913	1805572.0	1349459.0	726336.0	0.291174	0.619446
     29615.65	0.10940	1525432.0	1140436.0	614218.0	0.290867	0.618816
     29616.15	0.11908	1641882.0	1227084.0	660772.0	0.291203	0.618987
     29616.66	0.11264	1572025.0	1174971.0	632714.0	0.291121	0.618980
     29617.16	0.11007	1500754.0	1121856.0	604363.0	0.290983	0.618565
     29617.67	0.12290	1700284.0	1271079.0	685028.0	0.290929	0.618162
     29618.17	0.11352	1560154.0	1166635.0	628891.0	0.290661	0.617921
     29618.68	0.11668	1618811.0	1210400.0	652320.0	0.290741	0.618171
     29619.18	0.12511	1694150.0	1266824.0	683121.0	0.290668	0.617596
     29619.68	0.11447	1588231.0	1187728.0	640437.0	0.290579	0.617647
     29620.19	0.13014	1780125.0	1330947.0	718085.0	0.290793	0.617058
     29620.69	0.12280	1691748.0	1265349.0	682875.0	0.290414	0.616791
     29621.20	0.13055	1790779.0	1339414.0	722557.0	0.290419	0.617191
     29621.70	0.12688	1753328.0	1311068.0	707517.0	0.290674	0.616836
     29622.21	0.12856	1783111.0	1333765.0	719851.0	0.290354	0.616717
     29622.71	0.14286	1977954.0	1479325.0	798738.0	0.290477	0.616308
     29623.22	0.12172	1673892.0	1251717.0	675973.0	0.290635	0.616118
     29623.72	0.13150	1801282.0	1347437.0	728000.0	0.290294	0.615659
     29624.23	0.12968	1769887.0	1324022.0	715005.0	0.290242	0.616140
     29624.73	0.11905	1623097.0	1213893.0	656081.0	0.290504	0.615304
     29625.24	0.12594	1722081.0	1288141.0	696200.0	0.290333	0.615318
     29625.74	0.13771	1910755.0	1429506.0	772944.0	0.290170	0.614878
     29626.25	0.13137	1832861.0	1370919.0	741278.0	0.290397	0.614861
     29626.75	0.12518	1745414.0	1305586.0	706187.0	0.290340	0.614527
     29627.26	0.14497	2029604.0	1518208.0	821705.0	0.290310	0.613905
     29627.76	0.13814	1921510.0	1437751.0	777936.0	0.290031	0.614191
     29628.27	0.11483	1596098.0	1194042.0	645945.0	0.290218	0.614385
     29628.77	0.13310	1861367.0	1392584.0	753691.0	0.290150	0.613934
     29629.28	0.13445	1877056.0	1404042.0	760206.0	0.290349	0.613521
     29629.78	0.13116	1815891.0	1359083.0	735773.0	0.289766	0.613644
     29630.28	0.14278	1940394.0	1451665.0	786416.0	0.290180	0.612981
     29630.79	0.12221	1713535.0	1282254.0	694409.0	0.289939	0.613314
     29631.29	0.12133	1672870.0	1252195.0	678300.0	0.289643	0.613064
     29631.80	0.13308	1839584.0	1376848.0	746154.0	0.289743	0.612620
     29632.31	0.12693	1783059.0	1334485.0	723416.0	0.289785	0.612316
     29632.81	0.11569	1617328.0	1210495.0	656363.0	0.289746	0.612071
     29633.32	0.12787	1771146.0	1325590.0	718710.0	0.289769	0.612155
     29633.82	0.12455	1753475.0	1312544.0	711403.0	0.289632	0.612483
     29634.33	0.12178	1708701.0	1279015.0	693695.0	0.289643	0.611813
     29634.83	0.13189	1831877.0	1371418.0	743894.0	0.289496	0.611702
     29635.34	0.12529	1758457.0	1316383.0	714224.0	0.289549	0.611446
     29635.84	0.12464	1723859.0	1290254.0	700345.0	0.289726	0.611021
     29636.35	0.12357	1711358.0	1281345.0	695472.0	0.289377	0.611075
     29636.85	0.12433	1743801.0	1305801.0	709117.0	0.289251	0.610551
     29637.36	0.12139	1668064.0	1248641.0	677867.0	0.289608	0.610860
     29637.86	0.12626	1739936.0	1302593.0	707417.0	0.289491	0.610492
     29638.37	0.12132	1689955.0	1264963.0	687278.0	0.289659	0.610059
     29638.87	0.12021	1676164.0	1254870.0	682027.0	0.289476	0.609718
     29639.38	0.11901	1673428.0	1252937.0	680827.0	0.289384	0.609937
     29639.88	0.12780	1798190.0	1346235.0	731384.0	0.289469	0.610128
     29640.39	0.12105	1684198.0	1261117.0	685457.0	0.289292	0.609667
     29640.89	0.13003	1784768.0	1336554.0	726601.0	0.289194	0.609472
     29641.40	0.11770	1648087.0	1234316.0	671281.0	0.289098	0.609084
     29641.90	0.13237	1829923.0	1370187.0	745161.0	0.289327	0.609102
     29642.41	0.13136	1806044.0	1352659.0	735939.0	0.289067	0.608680
     29642.91	0.13346	1856134.0	1390536.0	756520.0	0.288807	0.608716
     29643.42	0.13244	1847924.0	1384007.0	752828.0	0.289080	0.608901
     29643.93	0.12374	1707825.0	1278965.0	695992.0	0.289169	0.608468
     29644.43	0.12139	1672147.0	1252564.0	681567.0	0.288916	0.608553
     29644.94	0.12581	1762884.0	1320466.0	718800.0	0.288966	0.608157
     29645.44	0.12508	1717699.0	1286704.0	700592.0	0.288902	0.607913
     29645.95	0.12173	1679469.0	1258346.0	685068.0	0.288680	0.608035
     29646.45	0.12063	1664238.0	1247081.0	678987.0	0.288562	0.607959
     29646.96	0.13322	1856514.0	1390859.0	757379.0	0.288779	0.607813
     29647.46	0.12903	1754896.0	1314678.0	715806.0	0.288818	0.607938
     29647.97	0.12027	1691580.0	1267378.0	690217.0	0.288713	0.607699
     29648.48	0.13622	1872364.0	1402812.0	763827.0	0.288723	0.607893
     29648.98	0.12700	1758269.0	1317642.0	717807.0	0.288486	0.607398
     29649.49	0.12140	1668082.0	1250000.0	681187.0	0.288531	0.607062
     29649.99	0.12701	1746514.0	1308853.0	713038.0	0.288471	0.607372
     29650.50	0.13687	1902548.0	1425760.0	777142.0	0.288489	0.606837
     29651.00	0.12453	1738576.0	1303193.0	710661.0	0.288249	0.606377
     29651.51	0.13010	1823608.0	1366744.0	745099.0	0.288386	0.606669
     29652.02	0.11895	1672343.0	1253364.0	683294.0	0.288395	0.606661
     29652.52	0.16396	2301797.0	1725152.0	940065.0	0.288375	0.607121
     29653.03	0.099883	1378416.0	1033300.0	563309.0	0.288177	0.606685
     29653.53	0.12381	1730365.0	1297028.0	707233.0	0.288257	0.606471
     29654.04	0.11423	1590950.0	1192574.0	650255.0	0.288217	0.606505
     29654.54	0.12523	1722149.0	1290849.0	704138.0	0.288273	0.606081
     29655.05	0.12282	1691538.0	1268160.0	691780.0	0.288071	0.606054
     29655.56	0.12921	1782497.0	1336303.0	729068.0	0.288108	0.605895
     29656.06	0.13729	1897517.0	1422353.0	776035.0	0.288234	0.605870
     29656.57	0.14816	2023438.0	1517521.0	828084.0	0.287720	0.605719
     29657.07	0.096732	1323477.0	992619.0	541620.0	0.287671	0.605782
     29657.58	0.10282	1410770.0	1057981.0	577285.0	0.287773	0.605782
     29658.09	0.091516	1262666.0	947321.0	516770.0	0.287343	0.606040
     29658.59	0.12983	1801849.0	1351486.0	737371.0	0.287609	0.605869
     29659.10	0.11212	1547167.0	1160186.0	633001.0	0.287845	0.605864
     29659.60	0.12066	1662244.0	1246617.0	680541.0	0.287735	0.605301
     29660.11	0.12788	1757038.0	1317567.0	719504.0	0.287843	0.604980
     29660.62	0.11914	1617963.0	1213401.0	662523.0	0.287741	0.605127
     29661.12	0.12033	1639487.0	1229933.0	671565.0	0.287424	0.605104
     29661.63	0.12827	1748119.0	1311332.0	716093.0	0.287497	0.604989
     29662.13	0.12340	1690435.0	1267806.0	692543.0	0.287698	0.604673
     29662.64	0.12899	1755774.0	1317202.0	719212.0	0.287400	0.605109
     29663.15	0.13625	1846510.0	1385526.0	756824.0	0.287218	0.604704
     29663.65	0.13442	1861896.0	1396601.0	762636.0	0.287554	0.605016
     29664.16	0.13515	1854152.0	1391508.0	760155.0	0.287039	0.604621
     29664.66	0.16467	2278678.0	1709872.0	933635.0	0.287177	0.605088
     29665.17	0.15604	2148104.0	1612011.0	880442.0	0.287103	0.604814
     29665.68	0.083680	1141030.0	856065.0	467827.0	0.287340	0.604248
     29666.18	0.089425	1231085.0	923775.0	504830.0	0.287183	0.604247
     29666.69	0.13097	1762302.0	1322015.0	722395.0	0.287464	0.604340
     29667.19	0.13270	1806417.0	1355748.0	740768.0	0.286992	0.604421
     29667.70	0.13462	1819303.0	1365284.0	746079.0	0.287091	0.604286
     29668.21	0.14593	1996567.0	1498430.0	819060.0	0.287011	0.604016
     29668.71	0.14426	1948723.0	1462873.0	799702.0	0.286772	0.603918
     29669.22	0.11143	1529498.0	1148155.0	627685.0	0.286783	0.603873
     29669.73	0.12815	1758536.0	1320266.0	721841.0	0.286648	0.603784
     29670.23	0.13141	1767451.0	1326928.0	725695.0	0.286672	0.603492
     29670.74	0.13228	1791543.0	1345043.0	735483.0	0.286651	0.603654
     29671.25	0.12799	1727103.0	1296928.0	709297.0	0.286447	0.603479
     29671.75	0.13014	1771726.0	1330045.0	727410.0	0.286741	0.603478
     29672.26	0.12803	1714879.0	1287440.0	704377.0	0.286687	0.603097
     29672.76	0.13871	1888241.0	1417757.0	775555.0	0.286570	0.603252
     29673.27	0.11604	1561958.0	1172459.0	641790.0	0.286837	0.602597
     29673.78	0.12931	1739204.0	1306458.0	714953.0	0.286108	0.602858
     29674.28	0.12718	1724296.0	1295157.0	708775.0	0.286187	0.602849
     29674.79	0.11782	1557884.0	1170279.0	640375.0	0.286086	0.602944
     29675.30	0.12769	1716599.0	1289085.0	705842.0	0.286412	0.602297
     29675.80	0.12023	1629560.0	1223724.0	669988.0	0.286411	0.602394
     29676.31	0.13981	1897970.0	1425964.0	780666.0	0.285937	0.602456
     29676.82	0.11517	1571776.0	1180857.0	646776.0	0.285966	0.601996
     29677.32	0.12505	1704294.0	1280230.0	701054.0	0.286111	0.602210
     29677.83	0.11499	1554685.0	1168095.0	639582.0	0.285899	0.602315
     29678.34	0.12649	1723729.0	1294768.0	709429.0	0.286158	0.601626
     29678.84	0.12501	1725236.0	1296466.0	710200.0	0.285722	0.601851
     29679.35	0.11839	1628370.0	1223471.0	670152.0	0.285888	0.601943
     29679.86	0.11786	1625670.0	1221671.0	669483.0	0.285700	0.601469
     29680.36	0.12050	1649580.0	1239737.0	679009.0	0.285621	0.602020
     29680.87	0.12173	1668244.0	1253968.0	687270.0	0.285459	0.601341
     29681.38	0.11887	1629063.0	1224229.0	670961.0	0.285694	0.601356
     29681.88	0.12767	1739653.0	1307806.0	716688.0	0.285335	0.601466
     29682.39	0.13655	1860286.0	1397990.0	766184.0	0.285695	0.601368
     29682.90	0.13052	1788805.0	1344148.0	736602.0	0.285787	0.601468
     29683.40	0.13006	1799278.0	1352291.0	741189.0	0.285585	0.601300
     29683.91	0.12533	1716957.0	1290908.0	707390.0	0.285208	0.601519
     29684.42	0.12825	1762124.0	1324472.0	726330.0	0.285506	0.600765
     29684.92	0.11106	1508006.0	1133453.0	621588.0	0.285520	0.600747
     29685.43	0.12812	1748245.0	1314013.0	720846.0	0.285527	0.600416
     29685.94	0.12979	1775749.0	1335038.0	732436.0	0.285263	0.600339
     29686.44	0.11934	1639285.0	1232465.0	676199.0	0.285244	0.600284
     29686.95	0.12714	1750024.0	1315791.0	721857.0	0.285191	0.600366
     29687.46	0.13169	1788309.0	1344497.0	737684.0	0.285251	0.600260
     29687.97	0.12424	1696509.0	1275389.0	699824.0	0.285321	0.600178
     29688.47	0.12185	1678381.0	1261985.0	692551.0	0.285144	0.600059
     29688.98	0.14048	1896249.0	1425611.0	782806.0	0.285277	0.599471
     29689.49	0.12296	1676629.0	1260575.0	691998.0	0.285217	0.599740
     29689.99	0.13041	1800956.0	1353882.0	743029.0	0.285342	0.599996
     29690.50	0.12994	1757999.0	1321522.0	725730.0	0.285392	0.599361
     29691.01	0.13049	1773012.0	1333487.0	732226.0	0.284882	0.599463
     29691.51	0.13258	1825562.0	1372863.0	754162.0	0.284990	0.599046
     29692.02	0.13191	1831147.0	1377227.0	756338.0	0.284870	0.599339
     29692.53	0.11966	1658018.0	1246985.0	684894.0	0.284894	0.599220
     29693.04	0.11529	1586300.0	1193163.0	655479.0	0.284796	0.598997
     29693.54	0.13130	1807564.0	1359284.0	746800.0	0.285022	0.598916
     29694.05	0.12361	1704717.0	1281835.0	704375.0	0.285106	0.598737
     29694.56	0.12843	1758573.0	1322436.0	726871.0	0.285027	0.598482
     29695.06	0.11699	1614780.0	1214354.0	667467.0	0.284986	0.598478
     29695.57	0.12406	1727737.0	1299054.0	713907.0	0.285176	0.598639
     29696.08	0.12236	1691717.0	1272616.0	699754.0	0.284669	0.598101
     29696.59	0.11030	1529978.0	1151340.0	632985.0	0.284327	0.598235
     29697.09	0.11102	1528862.0	1150134.0	632398.0	0.284645	0.598115
     29697.60	0.11429	1563351.0	1175824.0	646622.0	0.284862	0.597963
     29698.11	0.11718	1572442.0	1182690.0	650460.0	0.284838	0.597867
     29698.62	0.12298	1697860.0	1277627.0	702820.0	0.284364	0.597659
     29699.12	0.11507	1585043.0	1192557.0	655985.0	0.284512	0.597717
     29699.63	0.11771	1593680.0	1198986.0	659992.0	0.284570	0.597004
     29700.14	0.10475	1414032.0	1063835.0	585382.0	0.284565	0.597371
     29700.65	0.12825	1754153.0	1319811.0	726697.0	0.284498	0.596734
     29701.15	0.12482	1696841.0	1276699.0	702787.0	0.284490	0.596979
     29701.66	0.12156	1676111.0	1261050.0	694339.0	0.284532	0.596740
     29702.17	0.13577	1865102.0	1403659.0	772840.0	0.284233	0.596766
     29702.67	0.12777	1775618.0	1336351.0	735875.0	0.284206	0.596638
     29703.18	0.13589	1857670.0	1397596.0	769971.0	0.284569	0.596156
     29703.69	0.13338	1801229.0	1355516.0	746719.0	0.284287	0.596249
     29704.20	0.13572	1841637.0	1385963.0	763757.0	0.284260	0.595901
     29704.70	0.11877	1607241.0	1209574.0	666226.0	0.284251	0.596395
     29705.21	0.12473	1666821.0	1254992.0	691732.0	0.283789	0.595686
     29705.72	0.13300	1797560.0	1352883.0	745962.0	0.284192	0.595318
     29706.23	0.12882	1771844.0	1333554.0	735589.0	0.284173	0.594931
     29706.74	0.12539	1726512.0	1299643.0	716558.0	0.284014	0.595386
     29707.24	0.12705	1705089.0	1282925.0	707622.0	0.284475	0.594988
     29707.75	0.13885	1899805.0	1429933.0	788395.0	0.284124	0.595384
     29708.26	0.12439	1683556.0	1266922.0	698828.0	0.284318	0.594941
     29708.77	0.13062	1767912.0	1330539.0	734072.0	0.284215	0.594732
     29709.27	0.14071	1874609.0	1410898.0	778584.0	0.284174	0.594505
     29709.78	0.13250	1774017.0	1335232.0	736719.0	0.284141	0.594654
     29710.29	0.12771	1718390.0	1293642.0	713927.0	0.283926	0.594436
     29710.80	0.14218	1925233.0	1449619.0	800200.0	0.283746	0.594194
     29711.30	0.12909	1729116.0	1301870.0	718837.0	0.283809	0.593922
     29711.81	0.13697	1861264.0	1401169.0	773606.0	0.283949	0.593999
     29712.32	0.12186	1628830.0	1226495.0	677310.0	0.283701	0.593787
     29712.83	0.12394	1679067.0	1264224.0	698164.0	0.283780	0.593760
     29713.34	0.12841	1717642.0	1293415.0	714665.0	0.283666	0.593227
     29713.84	0.12457	1683073.0	1267169.0	699992.0	0.283836	0.593472
     29714.35	0.12246	1662767.0	1252445.0	691771.0	0.283385	0.593598
     29714.86	0.13122	1770752.0	1333222.0	736943.0	0.283806	0.592843
     29715.37	0.13068	1758230.0	1323883.0	731727.0	0.283739	0.592917
     29715.88	0.12713	1728177.0	1301452.0	719469.0	0.283587	0.592722
     29716.38	0.12464	1709701.0	1287215.0	711651.0	0.283838	0.592649
     29716.89	0.11709	1594585.0	1200882.0	663565.0	0.283557	0.593185
     29717.40	0.12084	1681519.0	1266804.0	700602.0	0.283200	0.592313
     29717.91	0.12501	1718103.0	1293388.0	715562.0	0.283956	0.591952
     29718.41	0.12600	1717631.0	1293625.0	715591.0	0.283498	0.592095
     29718.92	0.11626	1577472.0	1188057.0	657500.0	0.283504	0.591630
     29719.43	0.12694	1725721.0	1299503.0	719200.0	0.283663	0.591598
     29719.94	0.11304	1523658.0	1147735.0	635122.0	0.283324	0.591729
     29720.45	0.12143	1657366.0	1248751.0	690927.0	0.283086	0.591865
     29720.96	0.11257	1530624.0	1152927.0	638244.0	0.283372	0.591339
     29721.46	0.13446	1796768.0	1353865.0	749614.0	0.283026	0.591160
     29721.97	0.12372	1654091.0	1246114.0	690125.0	0.283222	0.590912
     29722.48	0.13787	1843107.0	1388804.0	768783.0	0.283010	0.591389
     29722.99	0.12722	1742332.0	1312591.0	727122.0	0.283221	0.590664
     29723.50	0.14883	1946171.0	1466356.0	812465.0	0.283083	0.590463
     29724.00	0.12382	1677105.0	1263526.0	700328.0	0.283163	0.590113
     29724.51	0.12390	1661028.0	1251739.0	693594.0	0.282903	0.590402
     29725.02	0.12308	1667400.0	1256640.0	696358.0	0.282824	0.590333
     29725.53	0.12189	1608986.0	1212237.0	672112.0	0.283137	0.589798
     29726.04	0.12459	1686488.0	1270886.0	704887.0	0.282934	0.589432
     29726.55	0.11718	1557172.0	1173365.0	650854.0	0.282996	0.589346
     29727.05	0.13330	1730539.0	1303721.0	723286.0	0.283210	0.589173
     29727.56	0.12569	1654185.0	1246900.0	691647.0	0.282648	0.589340
     29728.07	0.13383	1796087.0	1353511.0	750985.0	0.282908	0.589072
     29728.58	0.11705	1525428.0	1149646.0	638157.0	0.282821	0.588625
     29729.09	0.13051	1718598.0	1294992.0	718720.0	0.283004	0.588788
     29729.60	0.12530	1663110.0	1253254.0	695840.0	0.282946	0.588379
     29730.10	0.12028	1571570.0	1184500.0	657558.0	0.282754	0.588543
     29730.61	0.13467	1790327.0	1349203.0	749130.0	0.282884	0.588357
     29731.12	0.13156	1742035.0	1313029.0	729322.0	0.282717	0.587977
     29731.63	0.12984	1704491.0	1284927.0	713889.0	0.282565	0.587730
     29732.14	0.18838	2480001.0	1869891.0	1038581.0	0.282379	0.588025
     29732.65	0.13866	1855327.0	1398698.0	776985.0	0.282519	0.587876
     29733.15	0.069638	920057.0	693877.0	385366.0	0.282141	0.588101
     29733.66	0.10807	1436264.0	1082912.0	601903.0	0.282392	0.587313
     29734.17	0.12101	1594912.0	1202397.0	668030.0	0.282501	0.587739
     29734.68	0.12088	1578914.0	1190236.0	661685.0	0.282586	0.587117
     29735.19	0.12586	1649632.0	1243826.0	691456.0	0.282360	0.587148
     29735.70	0.13843	1846626.0	1392675.0	774267.0	0.282134	0.587065
     29736.21	0.17162	2283859.0	1722401.0	958014.0	0.282147	0.586612
     29736.71	0.12414	1639704.0	1236210.0	687792.0	0.282465	0.586319
     29737.22	0.070489	951474.0	717804.0	398999.0	0.281816	0.587238
     29737.73	0.097271	1280768.0	966255.0	537442.0	0.281787	0.586607
     29738.24	0.10341	1345156.0	1014596.0	564345.0	0.282019	0.586580
     29738.75	0.11921	1592306.0	1200902.0	668188.0	0.282110	0.586259
     29739.26	0.12681	1666075.0	1256911.0	699152.0	0.281813	0.586544
     29739.77	0.14050	1846810.0	1392909.0	775535.0	0.282065	0.585597
     29740.28	0.15424	2019825.0	1523735.0	848055.0	0.281846	0.585974
     29740.78	0.088291	1173755.0	885315.0	492853.0	0.282020	0.585733
     29741.29	0.078725	1037073.0	782540.0	435650.0	0.281613	0.585706
     29741.80	0.13137	1738256.0	1311487.0	730483.0	0.281721	0.585211
     29742.31	0.12439	1631556.0	1230726.0	685536.0	0.281930	0.585159
     29742.82	0.12492	1628229.0	1228827.0	684656.0	0.281433	0.584899
     29743.33	0.13586	1775251.0	1339456.0	746231.0	0.281678	0.584984
     29743.84	0.14498	1893911.0	1429197.0	796176.0	0.281531	0.585048
     29744.35	0.12304	1619789.0	1222777.0	681414.0	0.281171	0.584710
     29744.86	0.12519	1650114.0	1245318.0	693855.0	0.281453	0.584883
     29745.36	0.11452	1494345.0	1127675.0	628432.0	0.281530	0.584685
     29745.87	0.13450	1749349.0	1320152.0	735922.0	0.281497	0.584378
     29746.38	0.13259	1734967.0	1309804.0	729950.0	0.281111	0.584657
     29746.89	0.13048	1665953.0	1257393.0	701304.0	0.281357	0.583854
     29747.40	0.13435	1738595.0	1312389.0	731818.0	0.281228	0.584073
     29747.91	0.18911	2452265.0	1851215.0	1032432.0	0.281170	0.583925
     29748.42	0.15484	2045455.0	1544165.0	861738.0	0.281137	0.583287
     29748.93	0.065952	876788.0	661820.0	369198.0	0.281272	0.583661
     29749.44	0.11769	1520298.0	1147636.0	640276.0	0.281202	0.583560
     29749.95	0.13111	1692173.0	1277434.0	712678.0	0.281160	0.583579
     29750.45	0.13617	1768510.0	1335179.0	745178.0	0.281072	0.583198
     29750.96	0.13445	1764183.0	1332213.0	743622.0	0.280846	0.583064
     29751.47	0.13145	1703899.0	1286874.0	718530.0	0.280703	0.582764
     29751.98	0.17722	2320974.0	1752638.0	978495.0	0.280865	0.582862
     29752.49	0.093793	1242723.0	938575.0	524075.0	0.280697	0.582728
     29753.00	0.10525	1390576.0	1050449.0	586515.0	0.280500	0.582775
     29753.51	0.12904	1701181.0	1284611.0	717518.0	0.280867	0.582413
     29754.02	0.12579	1641929.0	1239984.0	692757.0	0.280773	0.582174
     29754.53	0.12473	1658893.0	1252814.0	699858.0	0.280758	0.582270
     29755.04	0.12657	1664375.0	1257343.0	702383.0	0.280449	0.582277
     29755.55	0.11791	1567102.0	1183581.0	661238.0	0.280683	0.582186
     29756.06	0.14213	1910250.0	1442794.0	806351.0	0.280653	0.581818
     29756.57	0.13086	1728398.0	1305650.0	729930.0	0.280494	0.581508
     29757.07	0.10808	1438321.0	1086740.0	607132.0	0.280294	0.582191
     29757.58	0.12507	1647668.0	1244968.0	695831.0	0.280251	0.581758
     29758.09	0.11825	1546357.0	1167989.0	653225.0	0.280618	0.581117
     29758.60	0.12564	1670578.0	1262262.0	705621.0	0.280264	0.581582
     29759.11	0.12156	1608803.0	1215461.0	679561.0	0.280367	0.581432
     29759.62	0.12424	1644492.0	1242329.0	695031.0	0.280444	0.580787
     29760.13	0.12184	1593636.0	1204201.0	673475.0	0.280202	0.581121
     29760.64	0.10936	1441688.0	1089268.0	609073.0	0.280309	0.581323
     29761.15	0.13233	1718047.0	1298555.0	726219.0	0.279936	0.581156
     29761.66	0.11802	1542045.0	1165354.0	651863.0	0.280085	0.580946
     29762.17	0.13471	1743000.0	1317406.0	737218.0	0.279943	0.580536
     29762.68	0.12980	1731174.0	1308582.0	732169.0	0.279856	0.580688
     29763.19	0.12977	1695566.0	1281758.0	717240.0	0.279784	0.580577
     29763.70	0.12804	1677481.0	1268134.0	709937.0	0.279747	0.580126
     29764.21	0.12954	1695484.0	1281822.0	717599.0	0.279686	0.580127
     29764.72	0.11650	1513679.0	1144494.0	641000.0	0.279580	0.579688
     29765.23	0.12793	1679179.0	1269227.0	710655.0	0.279897	0.579976
     29765.74	0.12383	1603400.0	1212318.0	678651.0	0.279592	0.580183
     29766.25	0.11886	1565598.0	1183747.0	662852.0	0.279583	0.579888
     29766.76	0.13210	1698598.0	1284249.0	719071.0	0.279629	0.579969
     29767.26	0.13417	1757025.0	1328496.0	743999.0	0.279575	0.579763
     29767.77	0.11463	1482203.0	1120658.0	627605.0	0.279613	0.579760
     29768.28	0.13388	1733960.0	1311633.0	734631.0	0.279135	0.579660
     29768.79	0.12760	1680034.0	1270692.0	711912.0	0.279252	0.579363
     29769.30	0.12536	1630558.0	1232946.0	691155.0	0.279516	0.578798
     29769.81	0.12870	1696608.0	1283022.0	719316.0	0.279413	0.578673
     29770.32	0.12679	1665080.0	1259568.0	705527.0	0.279104	0.579579
     29770.83	0.13226	1715694.0	1297586.0	727176.0	0.279312	0.579092
     29771.34	0.12877	1652973.0	1250187.0	700829.0	0.279282	0.578784
     29771.85	0.13055	1634171.0	1235907.0	692840.0	0.279331	0.578761
     29772.36	0.12869	1691173.0	1279253.0	717188.0	0.279146	0.578694
     29772.87	0.12153	1568373.0	1186844.0	665288.0	0.278741	0.578833
     29773.38	0.12110	1613461.0	1220579.0	684283.0	0.279056	0.578709
     29773.89	0.13845	1810994.0	1370217.0	768363.0	0.278907	0.578462
     29774.40	0.11945	1576153.0	1192200.0	668811.0	0.279187	0.578054
     29774.91	0.11706	1522357.0	1151859.0	645756.0	0.278883	0.578711
     29775.42	0.13344	1729261.0	1308361.0	733925.0	0.278919	0.578124
     29775.93	0.11149	1469374.0	1111706.0	623668.0	0.278941	0.578033
     29776.44	0.11551	1474384.0	1115705.0	626176.0	0.278754	0.577610
     29776.95	0.12077	1556791.0	1178114.0	660877.0	0.278712	0.578102
     29777.46	0.11414	1464531.0	1108179.0	621640.0	0.278817	0.578112
     29777.97	0.11868	1542256.0	1167244.0	654848.0	0.278601	0.577998
     29778.48	0.11167	1438327.0	1088339.0	610660.0	0.278828	0.577868
     29778.99	0.12003	1589573.0	1202597.0	674466.0	0.278982	0.578317
     29779.50	0.12447	1623578.0	1228644.0	689375.0	0.278721	0.577881
     29780.01	0.12543	1648905.0	1248214.0	700713.0	0.278398	0.577371
     29780.52	0.10093	1338642.0	1013239.0	568704.0	0.278504	0.577547
     29781.03	0.11705	1506543.0	1140492.0	640148.0	0.278358	0.577516
     29781.54	0.12127	1581601.0	1197318.0	672108.0	0.278354	0.577420
     29782.05	0.13211	1690567.0	1279922.0	718638.0	0.278265	0.577197
     29782.56	0.13341	1766079.0	1336855.0	750663.0	0.278442	0.577118
     29783.07	0.12601	1640497.0	1241583.0	697316.0	0.278612	0.576904
     29783.58	0.15099	1982938.0	1501558.0	843103.0	0.278076	0.577169
     29784.09	0.11471	1496988.0	1133285.0	636459.0	0.278335	0.576956
     29784.60	0.12132	1590469.0	1204316.0	676656.0	0.278117	0.576504
     29785.12	0.14209	1839031.0	1392279.0	782052.0	0.278297	0.576776
     29785.63	0.12511	1644636.0	1245366.0	699615.0	0.278090	0.576655
     29786.14	0.12022	1577871.0	1194552.0	671068.0	0.278305	0.576656
     29786.65	0.12709	1665478.0	1260840.0	708533.0	0.278334	0.576337
     29787.16	0.14609	1919183.0	1453130.0	816511.0	0.278180	0.576435
     29787.67	0.12994	1710560.0	1295609.0	727916.0	0.277840	0.576550
     29788.18	0.12746	1679656.0	1271778.0	714730.0	0.278173	0.576266
     29788.69	0.14005	1848107.0	1399547.0	786718.0	0.278013	0.576034
     29789.20	0.13169	1701837.0	1288798.0	724665.0	0.277998	0.575756
     29789.71	0.13820	1797672.0	1361718.0	765355.0	0.277745	0.576163
     29790.22	0.12795	1657725.0	1255701.0	705987.0	0.277752	0.575852
     29790.73	0.13192	1696919.0	1285586.0	722903.0	0.277600	0.575695
     29791.24	0.12976	1696184.0	1284656.0	722565.0	0.277890	0.575439
     29791.75	0.12574	1647253.0	1248047.0	701532.0	0.277529	0.576069
     29792.26	0.12879	1655731.0	1254506.0	705557.0	0.277501	0.575510
     29792.77	0.12549	1631050.0	1235520.0	695162.0	0.277732	0.575102
     29793.28	0.11545	1483928.0	1123788.0	632086.0	0.277988	0.575435
     29793.79	0.13575	1768618.0	1339980.0	753578.0	0.277544	0.575577
     29794.30	0.12213	1569865.0	1189019.0	669167.0	0.277861	0.574850
     29794.81	0.13427	1740843.0	1319063.0	742131.0	0.277448	0.575151
     29795.32	0.13168	1712089.0	1297405.0	730165.0	0.277348	0.574851
     29795.84	0.12125	1548276.0	1173000.0	660107.0	0.277577	0.574918
     29796.35	0.12014	1547278.0	1172418.0	659870.0	0.277429	0.574781
     29796.86	0.11838	1513078.0	1146758.0	645559.0	0.277207	0.574578
     29797.37	0.12662	1627614.0	1233027.0	694336.0	0.277643	0.574271
     29797.88	0.12152	1556031.0	1178912.0	663661.0	0.277546	0.574576
     29798.39	0.12848	1639838.0	1242511.0	699830.0	0.277463	0.574052
     29798.90	0.11738	1497401.0	1134947.0	638908.0	0.277145	0.574581
     29799.41	0.12230	1550140.0	1175045.0	662116.0	0.277039	0.573621
     29799.92	0.10932	1366729.0	1035758.0	583361.0	0.277287	0.574083
     29800.43	0.12408	1609954.0	1220367.0	687329.0	0.277054	0.574094
     29800.94	0.12791	1674649.0	1269084.0	715139.0	0.277308	0.573574
     29801.45	0.12031	1569094.0	1189253.0	669923.0	0.277173	0.573918
     29801.97	0.13602	1744817.0	1322935.0	745253.0	0.276797	0.573884
     29802.48	0.13822	1799606.0	1364040.0	768974.0	0.277117	0.573149
     29802.99	0.12380	1610736.0	1221125.0	688195.0	0.276919	0.573456
     29803.50	0.12893	1651014.0	1251305.0	705401.0	0.277203	0.573176
     29804.01	0.12813	1662350.0	1260227.0	710580.0	0.276940	0.572966
     29804.52	0.12658	1608816.0	1219623.0	687641.0	0.276957	0.573030
     29805.03	0.12209	1538772.0	1166549.0	657697.0	0.276935	0.573061
     29805.54	0.12212	1587177.0	1203435.0	678862.0	0.276777	0.572517
     29806.05	0.12476	1621123.0	1229208.0	693488.0	0.276749	0.572391
     29806.56	0.12773	1647196.0	1249145.0	704213.0	0.276615	0.573134
     29807.07	0.13916	1787896.0	1355655.0	764675.0	0.276755	0.572589
     29807.59	0.20368	2624922.0	1990443.0	1123022.0	0.276694	0.572334
     29808.10	0.090555	1149452.0	871746.0	491952.0	0.276542	0.572117
     29808.61	0.10194	1339905.0	1016132.0	573349.0	0.276595	0.572264
     29809.12	0.092547	1210039.0	917706.0	518029.0	0.276531	0.571846
     29809.63	0.13499	1729263.0	1311295.0	740167.0	0.276680	0.571895
     29810.14	0.15832	2038982.0	1546408.0	873103.0	0.276516	0.571637
     29810.65	0.12830	1669486.0	1265975.0	714735.0	0.276673	0.571686
     29811.16	0.094016	1208483.0	916693.0	517643.0	0.276349	0.571487
     29811.68	0.13443	1750248.0	1327795.0	749587.0	0.276238	0.571753
     29812.19	0.11943	1550964.0	1176260.0	664038.0	0.276537	0.571756
     29812.70	0.12247	1577783.0	1196890.0	676354.0	0.276294	0.570765
     29813.21	0.11996	1536318.0	1165144.0	658059.0	0.276544	0.571305
     29813.72	0.12200	1528095.0	1159012.0	654752.0	0.276454	0.571067
     29814.23	0.13899	1768938.0	1341674.0	758013.0	0.276461	0.570973
     29814.74	0.13678	1718187.0	1303627.0	736821.0	0.276119	0.570561
     29815.25	0.11596	1477600.0	1120810.0	633460.0	0.276368	0.570610
     29815.77	0.13152	1683756.0	1277796.0	722125.0	0.275890	0.570694
     29816.28	0.093352	1191817.0	904029.0	510915.0	0.276373	0.570658
     29816.79	0.12122	1539209.0	1167694.0	660465.0	0.276238	0.569842
     29817.30	0.11081	1426536.0	1082605.0	612063.0	0.275879	0.570290
     29817.81	0.12480	1618129.0	1227855.0	694230.0	0.276002	0.570221
     29818.32	0.12157	1549202.0	1175190.0	664748.0	0.276310	0.569777
     29818.83	0.12350	1585468.0	1203406.0	680735.0	0.275724	0.569738
     29819.35	0.11580	1496445.0	1135487.0	641912.0	0.276031	0.570366
     29819.86	0.14019	1768119.0	1341593.0	758735.0	0.276059	0.569960
     29820.37	0.084900	1113303.0	844874.0	477902.0	0.275899	0.569782
     29820.88	0.12002	1539117.0	1168381.0	661376.0	0.275590	0.569052
     29821.39	0.11758	1493982.0	1134024.0	641813.0	0.275673	0.569231
     29821.90	0.13636	1759689.0	1335485.0	755700.0	0.275843	0.569405
     29822.42	0.13955	1778893.0	1350150.0	764095.0	0.275776	0.569279
     29822.93	0.13132	1683423.0	1277839.0	723427.0	0.275659	0.568926
     29823.44	0.16452	2070654.0	1571864.0	889750.0	0.275602	0.569077
     29823.95	0.10419	1323651.0	1004769.0	569135.0	0.275636	0.568395
     29824.46	0.10625	1342154.0	1019030.0	576913.0	0.275425	0.568915
     29824.97	0.12871	1603935.0	1218065.0	690063.0	0.275196	0.568236
     29825.49	0.13141	1630783.0	1238118.0	701145.0	0.275468	0.568633
     29826.00	0.12914	1654096.0	1255663.0	711085.0	0.275591	0.568627
     29826.51	0.12949	1617447.0	1228148.0	695749.0	0.275342	0.568274
     29827.02	0.13084	1671054.0	1268828.0	719203.0	0.275361	0.567705
     29827.53	0.14275	1814294.0	1377424.0	780654.0	0.275481	0.567838
     29828.04	0.11594	1468291.0	1115180.0	631844.0	0.275083	0.568129
     29828.56	0.12733	1582227.0	1201769.0	681369.0	0.275039	0.567446
     29829.07	0.13069	1656832.0	1258167.0	713317.0	0.275251	0.567485
     29829.58	0.13842	1754835.0	1332789.0	755627.0	0.275101	0.567481
     29830.09	0.13079	1649508.0	1253031.0	710675.0	0.274912	0.567105
     29830.60	0.13889	1732352.0	1315483.0	745826.0	0.275276	0.567467
     29831.11	0.14502	1813168.0	1377113.0	781135.0	0.275086	0.566997
     29831.63	0.13527	1677226.0	1274358.0	723175.0	0.274699	0.566547
     29832.14	0.11787	1507333.0	1145118.0	649360.0	0.274834	0.567276
     29832.65	0.12596	1555985.0	1182223.0	670681.0	0.274712	0.566858
     29833.16	0.13015	1631121.0	1239221.0	703089.0	0.274785	0.566755
     29833.67	0.12325	1544733.0	1173717.0	666374.0	0.274675	0.566080
     29834.19	0.12823	1593195.0	1210583.0	687121.0	0.274639	0.566347
     29834.70	0.12457	1550479.0	1177856.0	668671.0	0.274868	0.566159
     29835.21	0.12556	1567258.0	1190760.0	675963.0	0.274736	0.566209
     29835.72	0.12963	1640239.0	1246064.0	707419.0	0.274852	0.566122
     29836.23	0.11756	1470591.0	1117225.0	634511.0	0.274816	0.565749
     29836.75	0.12298	1543950.0	1172920.0	666535.0	0.274848	0.565159
     29837.26	0.12339	1523367.0	1157328.0	657208.0	0.274809	0.565869
     29837.77	0.12726	1591054.0	1209063.0	686738.0	0.274551	0.565648
     29838.28	0.12626	1551815.0	1179238.0	669893.0	0.274557	0.565506
     29838.80	0.11351	1397826.0	1062462.0	603632.0	0.274329	0.565379
     29839.31	0.12916	1607733.0	1221901.0	694338.0	0.274417	0.565204
     29839.82	0.11690	1464125.0	1112957.0	632757.0	0.274237	0.564689
     29840.33	0.11943	1486897.0	1130213.0	642316.0	0.274285	0.565081
     29840.84	0.12349	1512652.0	1149787.0	653593.0	0.274288	0.564847
     29841.36	0.12090	1474090.0	1120177.0	637060.0	0.274554	0.564378
     29841.87	0.12479	1540857.0	1171376.0	666116.0	0.274160	0.564471
     29842.38	0.12754	1579552.0	1200444.0	682692.0	0.274450	0.564403
     29842.89	0.13067	1602982.0	1218458.0	693264.0	0.274280	0.563931
     29843.41	0.13737	1654897.0	1258251.0	715730.0	0.274016	0.564175
     29843.92	0.12264	1523208.0	1158166.0	658899.0	0.273981	0.564023
     29844.43	0.13065	1588908.0	1207904.0	687185.0	0.274160	0.564038
     29844.94	0.11748	1460986.0	1110878.0	631908.0	0.273961	0.564162
     29845.46	0.12256	1501569.0	1141831.0	649969.0	0.273877	0.563464
     29845.97	0.12938	1573939.0	1196685.0	680987.0	0.274026	0.563767
     29846.48	0.12312	1529004.0	1162746.0	661929.0	0.273832	0.563381
     29846.99	0.12570	1555877.0	1183205.0	673560.0	0.273813	0.563405
     29847.50	0.12802	1588621.0	1208013.0	688104.0	0.273889	0.562792
     29848.02	0.12573	1568044.0	1192395.0	679312.0	0.273865	0.562639
     29848.53	0.12074	1486823.0	1131044.0	644187.0	0.273501	0.562907
     29849.04	0.12818	1576198.0	1198830.0	682776.0	0.273670	0.562935
     29849.56	0.13285	1584954.0	1205615.0	686847.0	0.273566	0.562634
     29850.07	0.12654	1564991.0	1190200.0	678172.0	0.273759	0.562476
     29850.58	0.12520	1530971.0	1164214.0	663514.0	0.273856	0.562252
     29851.09	0.13340	1646026.0	1252079.0	713609.0	0.273559	0.562225
     29851.61	0.13273	1641373.0	1248488.0	711660.0	0.273600	0.562088
     29852.12	0.12850	1567635.0	1192246.0	679354.0	0.273729	0.562452
     29852.63	0.12399	1501762.0	1142648.0	651269.0	0.273291	0.562181
     29853.14	0.12871	1601837.0	1218954.0	694989.0	0.273158	0.561852
     29853.66	0.12303	1545716.0	1176149.0	670503.0	0.273242	0.561973
     29854.17	0.13313	1624711.0	1236104.0	705178.0	0.273365	0.561270
     29854.68	0.12631	1575424.0	1198589.0	683764.0	0.273379	0.561287
     29855.19	0.12697	1559682.0	1186937.0	676993.0	0.273106	0.561470
     29855.71	0.13197	1620279.0	1233421.0	703858.0	0.272807	0.560970
     29856.22	0.10152	1247349.0	948924.0	541345.0	0.273447	0.561272
     29856.73	0.12383	1495987.0	1138601.0	649774.0	0.272986	0.560931
     29857.25	0.11879	1466966.0	1116316.0	637198.0	0.273162	0.560709
     29857.76	0.11438	1407114.0	1070884.0	611437.0	0.273056	0.560428
     29858.27	0.11873	1440523.0	1096418.0	626048.0	0.272958	0.560377
     29858.78	0.11195	1369927.0	1042597.0	595405.0	0.273043	0.560228
     29859.30	0.12381	1514011.0	1152160.0	658162.0	0.273124	0.559943
     29859.81	0.12941	1587149.0	1208100.0	690004.0	0.272890	0.560107
     29860.32	0.10321	1257768.0	957515.0	546825.0	0.272753	0.560213
     29860.84	0.11112	1392636.0	1060201.0	605563.0	0.272740	0.560055
     29861.35	0.11722	1428432.0	1087101.0	621388.0	0.273063	0.559314
     29861.86	0.12157	1492449.0	1136244.0	648970.0	0.272690	0.560097
     29862.37	0.13896	1679012.0	1278315.0	730722.0	0.272663	0.559265
     29862.89	0.12227	1500086.0	1141758.0	652413.0	0.272953	0.559647
     29863.40	0.13293	1623988.0	1236812.0	706561.0	0.272348	0.559883
     29863.91	0.12849	1563686.0	1190686.0	680807.0	0.272516	0.559006
     29864.43	0.12772	1586497.0	1207846.0	690445.0	0.272690	0.559258
     29864.94	0.11832	1459457.0	1111243.0	635193.0	0.272585	0.559306
     29865.45	0.14422	1771081.0	1348768.0	771044.0	0.272399	0.559201
     29865.97	0.12011	1490967.0	1135273.0	649206.0	0.272552	0.558878
     29866.48	0.12920	1574656.0	1198740.0	685588.0	0.272766	0.558749
     29866.99	0.13700	1647098.0	1253529.0	717156.0	0.273052	0.558425
     29867.50	0.12732	1552762.0	1182682.0	676368.0	0.272251	0.558803
     29868.02	0.11867	1456470.0	1109534.0	634492.0	0.272076	0.558871
     29868.53	0.12694	1552979.0	1182583.0	676575.0	0.272474	0.558413
     29869.04	0.14022	1736814.0	1322832.0	756510.0	0.272278	0.558814
     29869.56	0.13684	1703990.0	1297775.0	743366.0	0.272321	0.557218
     29870.07	0.13121	1632280.0	1243468.0	711640.0	0.272074	0.558087
     29870.58	0.13283	1626863.0	1239392.0	709558.0	0.272033	0.557734
     29871.10	0.13405	1685507.0	1283944.0	734995.0	0.272130	0.557828
     29871.61	0.13553	1646764.0	1254306.0	718296.0	0.272230	0.557456
     29872.12	0.13866	1713447.0	1305124.0	746993.0	0.272209	0.557998
     29872.64	0.12949	1565377.0	1192365.0	682809.0	0.272188	0.557479
     29873.15	0.13210	1618013.0	1232475.0	705857.0	0.272175	0.557367
     29873.66	0.12473	1532063.0	1167404.0	668914.0	0.271833	0.556882
     29874.18	0.12484	1527846.0	1163946.0	666695.0	0.272043	0.557239
     29874.69	0.12873	1560784.0	1189144.0	681375.0	0.271955	0.556876
     29875.20	0.12792	1555742.0	1185344.0	679154.0	0.271920	0.556940
     29875.72	0.12621	1559171.0	1187811.0	680550.0	0.272042	0.556966
     29876.23	0.12607	1566968.0	1193938.0	684446.0	0.271885	0.556403
     29876.74	0.12050	1475046.0	1124115.0	644306.0	0.271693	0.556578
     29877.26	0.12609	1573025.0	1198722.0	686870.0	0.271745	0.556866
     29877.77	0.12819	1588743.0	1210612.0	693928.0	0.271817	0.556513
     29878.29	0.11534	1433871.0	1092746.0	626507.0	0.271684	0.556289
     29878.80	0.13172	1625878.0	1239181.0	710393.0	0.271597	0.556388
     29879.31	0.12430	1550139.0	1181276.0	677271.0	0.271749	0.556279
     29879.83	0.12019	1460139.0	1113112.0	638186.0	0.271372	0.556285
     29880.34	0.11591	1413038.0	1077081.0	617925.0	0.271487	0.555643
     29880.85	0.12564	1514184.0	1153811.0	661986.0	0.271806	0.555581
     29881.37	0.12471	1483916.0	1131197.0	649123.0	0.271408	0.555409
     29881.88	0.11409	1382218.0	1053742.0	604581.0	0.271342	0.555567
     29882.39	0.12379	1498960.0	1142646.0	655592.0	0.271425	0.555563
     29882.91	0.11978	1483991.0	1131346.0	649269.0	0.271327	0.555316
     29883.42	0.12987	1591303.0	1213120.0	696213.0	0.271358	0.555295
     29883.94	0.12347	1521103.0	1159629.0	665762.0	0.271336	0.554923
     29884.45	0.13117	1637590.0	1248586.0	716721.0	0.271214	0.555080
     29884.96	0.13342	1647940.0	1256453.0	721193.0	0.271233	0.555141
     29885.48	0.12926	1617049.0	1232777.0	707999.0	0.271334	0.554582
     29885.99	0.11785	1446383.0	1102740.0	633377.0	0.271268	0.554487
     29886.50	0.13031	1639437.0	1250142.0	717771.0	0.271096	0.554862
     29887.02	0.12319	1556444.0	1186738.0	681785.0	0.271195	0.554249
     29887.53	0.12827	1553737.0	1184882.0	680718.0	0.271020	0.554250
     29888.05	0.11921	1438602.0	1096975.0	630339.0	0.271115	0.554054
     29888.56	0.12846	1604433.0	1223734.0	702887.0	0.270864	0.554466
     29889.07	0.12273	1513277.0	1154231.0	663188.0	0.270843	0.554131
     29889.59	0.11501	1410828.0	1076194.0	618646.0	0.270746	0.553653
     29890.10	0.14131	1744852.0	1330742.0	764776.0	0.270933	0.553909
     29890.62	0.12856	1572075.0	1199132.0	688978.0	0.270798	0.554144
     29891.13	0.12290	1510293.0	1152323.0	662484.0	0.270524	0.553539
     29891.64	0.12713	1566139.0	1194586.0	686967.0	0.270814	0.553269
     29892.16	0.14221	1745807.0	1331474.0	765660.0	0.270930	0.553304
     29892.67	0.11953	1496599.0	1141672.0	656339.0	0.270701	0.553572
     29893.19	0.15218	1871070.0	1427090.0	820899.0	0.270873	0.552993
     29893.70	0.11078	1358100.0	1036081.0	596002.0	0.270641	0.552957
     29894.21	0.13442	1660982.0	1267101.0	728965.0	0.270677	0.552861
     29894.73	0.11835	1475453.0	1125784.0	647665.0	0.270485	0.552861
     29895.24	0.11971	1487991.0	1135336.0	653244.0	0.270498	0.552733
     29895.76	0.12662	1546912.0	1180411.0	679176.0	0.270398	0.552738
     29896.27	0.12492	1556177.0	1187511.0	682898.0	0.270373	0.553269
     29896.78	0.13092	1614605.0	1232142.0	708999.0	0.270336	0.552655
     29897.30	0.14110	1732394.0	1321890.0	760534.0	0.270442	0.552797
     29897.81	0.10822	1360641.0	1038459.0	597714.0	0.270218	0.552381
     29898.33	0.11076	1381647.0	1054157.0	607032.0	0.270535	0.551915
     29898.84	0.12133	1493306.0	1139879.0	656581.0	0.270070	0.551631
     29899.36	0.11321	1388404.0	1059751.0	610156.0	0.270121	0.552075
     29899.87	0.13016	1612224.0	1230300.0	708442.0	0.270357	0.551945
     29900.38	0.11584	1433373.0	1094226.0	630283.0	0.269983	0.551634
     29900.90	0.11820	1475111.0	1126311.0	648651.0	0.269786	0.551808
     29901.41	0.13515	1691723.0	1291555.0	744082.0	0.269901	0.551451
     29901.93	0.12628	1555034.0	1187057.0	683940.0	0.270020	0.551362
     29902.44	0.077802	959586.0	732261.0	421842.0	0.270365	0.551506
     29902.96	0.12323	1493963.0	1140777.0	657337.0	0.269723	0.551268
     29903.47	0.12797	1625052.0	1240661.0	714662.0	0.269896	0.551590
     29903.98	0.11590	1411792.0	1077760.0	621001.0	0.269975	0.551307
     29904.50	0.13239	1627507.0	1242727.0	716176.0	0.269741	0.551137
     29905.01	0.11769	1441798.0	1100876.0	634282.0	0.269785	0.551368
     29905.53	0.13082	1637835.0	1251018.0	720935.0	0.269418	0.551164
     29906.04	0.14394	1787891.0	1365513.0	787072.0	0.269507	0.550966
     29906.56	0.11741	1442955.0	1102205.0	635339.0	0.269380	0.550909
     29907.07	0.12795	1593036.0	1216429.0	701528.0	0.269722	0.550414
     29907.59	0.13362	1666832.0	1272804.0	733816.0	0.269702	0.550719
     29908.10	0.13554	1672573.0	1277355.0	736705.0	0.269572	0.550359
     29908.62	0.12148	1498535.0	1144418.0	659976.0	0.269592	0.550448
     29909.13	0.13537	1676451.0	1280058.0	738544.0	0.269774	0.549980
     29909.64	0.18134	2241499.0	1712070.0	987485.0	0.269442	0.550297
     29910.16	0.10173	1260226.0	962102.0	555030.0	0.269926	0.550098
     29910.67	0.099086	1217796.0	930172.0	536555.0	0.269428	0.550200
     29911.19	0.13446	1688304.0	1289769.0	744201.0	0.269261	0.549907
     29911.70	0.14035	1705704.0	1303000.0	751747.0	0.269309	0.550025
     29912.22	0.14299	1727079.0	1319230.0	761658.0	0.269383	0.549306
     29912.73	0.13288	1604185.0	1225607.0	707297.0	0.269180	0.549741
     29913.25	0.13965	1701080.0	1299655.0	750201.0	0.269164	0.549513
     29913.76	0.12544	1527782.0	1167287.0	673988.0	0.269135	0.549225
     29914.28	0.13537	1667555.0	1274183.0	735801.0	0.269053	0.549101
     29914.79	0.12332	1502741.0	1148359.0	663119.0	0.268957	0.549135
     29915.31	0.12657	1533634.0	1171780.0	676743.0	0.269116	0.548988
     29915.82	0.12555	1562448.0	1194117.0	689466.0	0.268847	0.549245
     29916.34	0.12338	1503470.0	1148776.0	664020.0	0.269079	0.548140
     29916.85	0.12337	1502984.0	1148723.0	663518.0	0.268802	0.548850
     29917.37	0.11953	1456068.0	1113027.0	643008.0	0.268656	0.548681
     29917.88	0.12380	1523041.0	1164182.0	672753.0	0.268690	0.548396
     29918.40	0.13315	1627214.0	1243600.0	718565.0	0.268859	0.548510
     29918.91	0.12326	1525666.0	1166053.0	673948.0	0.268806	0.548227
     29919.43	0.12639	1557687.0	1190429.0	687808.0	0.268888	0.548559
     29919.94	0.11948	1487689.0	1137296.0	657022.0	0.268570	0.548691
     29920.46	0.12963	1588749.0	1214825.0	702237.0	0.268347	0.548084
     29920.97	0.12129	1502510.0	1148798.0	664219.0	0.268421	0.547860
     29921.49	0.12601	1554019.0	1188265.0	686945.0	0.268350	0.547995
     29922.00	0.12160	1499724.0	1146689.0	662984.0	0.268402	0.547883
     29922.52	0.11836	1493831.0	1141970.0	660374.0	0.268589	0.547704
     29923.03	0.11911	1485242.0	1135457.0	657076.0	0.268543	0.546991
     29923.55	0.11332	1399070.0	1069567.0	618827.0	0.268554	0.547183
     29924.06	0.11334	1397418.0	1068578.0	618300.0	0.268297	0.547110
     29924.58	0.14520	1764265.0	1349150.0	780510.0	0.268259	0.547282
     29925.09	0.11957	1464959.0	1120014.0	647977.0	0.268486	0.547241
     29925.61	0.13574	1654169.0	1265023.0	732108.0	0.268208	0.546918
     29926.12	0.11021	1305636.0	998726.0	578214.0	0.267965	0.546536
     29926.64	0.14133	1725662.0	1319862.0	763710.0	0.268084	0.547094
     29927.15	0.12295	1456057.0	1113442.0	644571.0	0.268276	0.546626
     29927.67	0.12844	1539289.0	1176979.0	681201.0	0.268370	0.546849
     29928.18	0.13032	1555944.0	1190143.0	689110.0	0.268009	0.546428
     29928.70	0.12479	1557133.0	1191100.0	689411.0	0.267969	0.546795
     29929.21	0.12360	1498543.0	1146131.0	663841.0	0.268101	0.546105
     29929.73	0.11919	1423353.0	1088832.0	630788.0	0.267910	0.545891
     29930.24	0.11800	1400201.0	1071308.0	620262.0	0.267735	0.546494
     29930.76	0.13012	1579184.0	1208238.0	699816.0	0.267745	0.546101
     29931.27	0.13092	1596290.0	1221417.0	707420.0	0.267671	0.546142
     29931.79	0.12559	1510361.0	1155402.0	669180.0	0.267900	0.546151
     29932.31	0.11980	1451266.0	1110265.0	643170.0	0.267838	0.545945
     29932.82	0.13224	1615189.0	1236136.0	716409.0	0.267462	0.545494
     29933.34	0.12504	1494140.0	1143474.0	662637.0	0.267480	0.545599
     29933.85	0.13151	1624725.0	1243430.0	720722.0	0.267465	0.545375
     29934.37	0.12612	1541166.0	1179706.0	683651.0	0.267274	0.545573
     29934.88	0.12315	1489461.0	1139578.0	660927.0	0.267756	0.544770
     29935.40	0.13468	1678528.0	1284206.0	744223.0	0.267777	0.545555
     29935.91	0.12623	1584728.0	1212571.0	703442.0	0.267670	0.544513
     29936.43	0.12466	1530423.0	1171474.0	679605.0	0.267281	0.544506
     29936.94	0.13574	1629357.0	1247397.0	723539.0	0.267126	0.544660
     29937.46	0.11748	1453372.0	1112625.0	645274.0	0.267164	0.544802
     29937.98	0.13094	1566400.0	1199242.0	695495.0	0.267090	0.544821
     29938.49	0.11713	1384998.0	1059805.0	615137.0	0.267614	0.543995
     29939.01	0.12563	1557081.0	1191460.0	691425.0	0.267633	0.544180
     29939.52	0.11874	1447873.0	1108364.0	643371.0	0.267211	0.543919
     29940.04	0.12572	1526886.0	1168923.0	678451.0	0.267148	0.544026
     29940.55	0.11980	1484845.0	1136709.0	659782.0	0.267173	0.543983
     29941.07	0.11764	1415179.0	1083276.0	629208.0	0.267266	0.543283
     29941.59	0.12182	1454143.0	1113356.0	646156.0	0.267038	0.544093
     29942.10	0.11431	1392269.0	1066186.0	619010.0	0.266847	0.543722
     29942.62	0.11206	1361919.0	1042532.0	605311.0	0.267242	0.543665
     29943.13	0.12133	1517677.0	1162300.0	674797.0	0.266780	0.543744
     29943.65	0.11103	1379779.0	1056443.0	613421.0	0.267016	0.543611
     29944.16	0.11841	1405749.0	1076467.0	625302.0	0.266886	0.543205
     29944.68	0.11430	1401538.0	1073330.0	623718.0	0.266804	0.542823
     29945.20	0.12551	1549954.0	1186810.0	689453.0	0.266956	0.543126
     29945.71	0.12359	1509855.0	1156153.0	671891.0	0.266916	0.542757
     29946.23	0.12251	1474064.0	1129124.0	656260.0	0.266581	0.542640
     29946.74	0.14197	1734116.0	1327727.0	771800.0	0.267029	0.542498
     29947.26	0.12261	1471619.0	1126843.0	654904.0	0.266943	0.542687
     29947.78	0.12377	1529766.0	1171617.0	680995.0	0.266730	0.542585
     29948.29	0.12760	1544085.0	1182701.0	687346.0	0.266631	0.542718
     29948.81	0.13041	1601274.0	1226499.0	713306.0	0.266636	0.542009
     29949.32	0.13026	1573653.0	1205375.0	700754.0	0.266609	0.542389
     29949.84	0.13119	1591685.0	1219441.0	708925.0	0.266401	0.542398
     29950.36	0.12978	1579387.0	1209976.0	703761.0	0.266436	0.541917
     29950.87	0.13223	1601612.0	1227284.0	713810.0	0.266207	0.541942
     29951.39	0.12487	1509229.0	1156380.0	672576.0	0.266304	0.541935
     29951.90	0.12973	1493179.0	1143701.0	665346.0	0.266638	0.541718
     29952.42	0.13024	1585464.0	1214836.0	706786.0	0.266268	0.541636
     29952.94	0.12926	1550076.0	1187771.0	691033.0	0.266226	0.541646
     29953.45	0.13692	1642239.0	1258740.0	732274.0	0.265949	0.541712
     29953.97	0.13766	1621620.0	1242499.0	723045.0	0.266301	0.541408
     29954.48	0.12950	1545591.0	1184480.0	689505.0	0.266103	0.541085
     29955.00	0.14396	1751438.0	1341981.0	781166.0	0.266290	0.541114
     29955.52	0.12064	1435169.0	1099755.0	640197.0	0.266195	0.541067
     29956.03	0.13128	1590111.0	1218812.0	709677.0	0.265927	0.540822
     29956.55	0.12463	1498893.0	1148276.0	668771.0	0.266465	0.540575
     29957.07	0.13267	1606591.0	1231312.0	716980.0	0.266034	0.540788
     29957.58	0.12304	1494421.0	1145542.0	667177.0	0.265861	0.540578
     29958.10	0.13283	1610100.0	1234222.0	718822.0	0.265855	0.540582
     29958.61	0.12801	1511429.0	1158769.0	674998.0	0.265697	0.540404
     29959.13	0.12337	1519587.0	1165084.0	678809.0	0.265645	0.540209
     29959.65	0.13124	1604616.0	1229996.0	716500.0	0.265874	0.540388
     29960.16	0.11401	1363340.0	1045020.0	608909.0	0.265902	0.540122
     29960.68	0.12686	1502273.0	1151442.0	670907.0	0.265964	0.540140
     29961.20	0.12945	1532401.0	1175097.0	684736.0	0.265485	0.540073
     29961.71	0.12257	1453938.0	1115040.0	649900.0	0.265385	0.539827
     29962.23	0.13099	1561481.0	1197440.0	697925.0	0.265449	0.539830
     29962.75	0.11935	1412540.0	1083100.0	631534.0	0.265562	0.539431
     29963.26	0.11268	1331330.0	1021076.0	595326.0	0.265321	0.539503
     29963.78	0.12778	1509575.0	1157715.0	674925.0	0.265380	0.539602
     29964.30	0.12648	1484023.0	1137810.0	663564.0	0.265651	0.539235
     29964.81	0.11477	1346913.0	1032953.0	602383.0	0.265394	0.539284
     29965.33	0.12527	1482759.0	1137198.0	663335.0	0.265337	0.539042
     29965.84	0.12575	1486986.0	1140782.0	665450.0	0.265037	0.539006
     29966.36	0.11283	1351813.0	1036996.0	604850.0	0.265119	0.539103
     29966.88	0.12976	1506652.0	1155404.0	674065.0	0.265440	0.538879
     29967.39	0.13514	1612915.0	1237147.0	722215.0	0.265235	0.538240
     29967.91	0.12523	1511214.0	1159307.0	676386.0	0.265091	0.538814
     29968.43	0.12497	1498555.0	1149768.0	671174.0	0.264941	0.538287
     29968.94	0.11703	1393755.0	1068954.0	624234.0	0.265321	0.537911
     29969.46	0.13825	1644644.0	1261719.0	736496.0	0.265049	0.538327
     29969.98	0.12255	1468930.0	1126667.0	657975.0	0.265271	0.537852
     29970.49	0.13752	1691969.0	1297727.0	757693.0	0.265279	0.538091
     29971.01	0.11749	1416917.0	1087215.0	635162.0	0.264864	0.537495
     29971.53	0.12742	1562809.0	1198885.0	700126.0	0.265093	0.537887
     29972.04	0.14106	1681946.0	1290285.0	753440.0	0.265088	0.537969
     29972.56	0.091740	1083491.0	831300.0	485520.0	0.264953	0.537770
     29973.08	0.12494	1528589.0	1172830.0	685172.0	0.264925	0.537505
     29973.60	0.13041	1560348.0	1196996.0	699223.0	0.265094	0.537601
     29974.11	0.12158	1467768.0	1126536.0	657948.0	0.264595	0.537777
     29974.63	0.14102	1724361.0	1323325.0	773496.0	0.264709	0.536982
     29975.15	0.13323	1596047.0	1225034.0	715963.0	0.264561	0.537095
     29975.66	0.12419	1524233.0	1169761.0	683872.0	0.264692	0.536784
     29976.18	0.17211	2122225.0	1628538.0	951841.0	0.264782	0.537040
     29976.70	0.086117	1063200.0	815948.0	476643.0	0.264688	0.537583
     29977.21	0.12606	1555492.0	1194203.0	698074.0	0.264313	0.536909
     29977.73	0.12798	1612616.0	1237826.0	723897.0	0.264501	0.536463
     29978.25	0.12487	1555305.0	1193851.0	697970.0	0.264487	0.536763
     29978.76	0.12908	1587778.0	1218924.0	712641.0	0.264367	0.536746
     29979.28	0.13053	1603296.0	1230362.0	719780.0	0.264753	0.536118
     29979.80	0.13419	1686022.0	1294533.0	756933.0	0.264222	0.536631
     29980.32	0.17505	2225180.0	1708089.0	999077.0	0.264463	0.536299
     29980.83	0.10213	1276885.0	980640.0	573669.0	0.263973	0.536153
     29981.35	0.10479	1300409.0	998281.0	584164.0	0.264399	0.535853
     29981.87	0.10680	1338931.0	1027763.0	601188.0	0.264487	0.536232
     29982.38	0.11696	1453459.0	1116174.0	653181.0	0.264039	0.535808
     29982.90	0.12017	1480082.0	1136833.0	665351.0	0.263851	0.535687
     29983.42	0.13349	1685677.0	1294343.0	757620.0	0.264164	0.535577
     29983.94	0.11659	1445186.0	1110094.0	649861.0	0.263793	0.535441
     29984.45	0.14756	1851531.0	1421758.0	832337.0	0.264119	0.535412
     29984.97	0.088005	1086206.0	833984.0	488296.0	0.264232	0.535292
     29985.49	0.094349	1149208.0	882581.0	516722.0	0.263978	0.535346
     29986.00	0.11766	1457068.0	1119366.0	655304.0	0.263664	0.535418
     29986.52	0.11201	1378476.0	1058715.0	620019.0	0.263923	0.535061
     29987.04	0.11656	1394639.0	1071250.0	627467.0	0.263809	0.534890
     29987.56	0.12402	1544267.0	1186139.0	694432.0	0.263846	0.535365
     29988.07	0.13847	1719434.0	1320654.0	773853.0	0.263868	0.534500
     29988.59	0.19488	2374673.0	1824599.0	1068883.0	0.263500	0.534746
     29989.11	0.087530	1093683.0	840128.0	492021.0	0.263752	0.535033
     29989.63	0.10172	1270818.0	975983.0	571735.0	0.263971	0.534770
     29990.14	0.12349	1515176.0	1164040.0	682282.0	0.263635	0.534209
     29990.66	0.13189	1613349.0	1239542.0	726325.0	0.263570	0.534500
     29991.18	0.12403	1559543.0	1198363.0	702439.0	0.263436	0.534153
     29991.70	0.13907	1731248.0	1330687.0	779928.0	0.263147	0.534249
     29992.21	0.12988	1621234.0	1245622.0	730136.0	0.263553	0.534159
     29992.73	0.20259	2510445.0	1928665.0	1130942.0	0.263632	0.533777
     29993.25	0.10396	1287362.0	989079.0	579898.0	0.263576	0.533922
     29993.77	0.085166	1042979.0	801429.0	470037.0	0.263440	0.533585
     29994.28	0.11717	1472865.0	1131620.0	663723.0	0.263559	0.533541
     29994.80	0.12823	1613918.0	1240295.0	727288.0	0.263316	0.533782
     29995.32	0.13616	1718833.0	1320965.0	774906.0	0.263283	0.533376
     29995.84	0.13789	1718709.0	1320797.0	774928.0	0.263338	0.533220
     29996.35	0.15497	1932749.0	1485644.0	871415.0	0.263095	0.533485
     29996.87	0.18153	2283041.0	1755203.0	1029867.0	0.262924	0.533155
     29997.39	0.082544	1048905.0	806218.0	473074.0	0.263148	0.533102
     29997.91	0.11114	1410886.0	1084356.0	636639.0	0.263232	0.532539
     29998.42	0.12937	1637962.0	1259349.0	738880.0	0.262858	0.533215
     29998.94	0.12907	1628721.0	1252055.0	734820.0	0.263009	0.532916
     29999.46	0.13009	1638802.0	1259975.0	739844.0	0.262874	0.532408
     29999.98	0.11904	1510698.0	1161400.0	681890.0	0.262946	0.532513
     30000.50	0.14020	1763752.0	1355620.0	796121.0	0.263184	0.532263
     30001.01	0.11813	1517045.0	1166315.0	684735.0	0.262915	0.532573
     30001.53	0.13271	1633183.0	1255531.0	737468.0	0.262972	0.532091
     30002.05	0.11865	1467241.0	1128285.0	662440.0	0.262685	0.532524
     30002.57	0.13476	1687390.0	1297362.0	762138.0	0.262850	0.531961
     30003.08	0.11882	1511791.0	1162534.0	682968.0	0.262693	0.531909
     30003.60	0.12773	1621338.0	1246879.0	732453.0	0.262608	0.532000
     30004.12	0.13005	1637067.0	1258801.0	739537.0	0.262747	0.531891
     30004.64	0.11519	1444797.0	1111345.0	652791.0	0.262398	0.532069
     30005.16	0.11932	1525006.0	1172784.0	689050.0	0.262618	0.531822
     30005.67	0.11943	1498728.0	1152533.0	677225.0	0.262655	0.531714
     30006.19	0.11792	1462369.0	1124394.0	660920.0	0.262813	0.531367
     30006.71	0.12514	1582415.0	1217250.0	715262.0	0.262358	0.531701
     30007.23	0.12332	1550103.0	1192174.0	700992.0	0.262543	0.531037
     30007.75	0.12005	1495144.0	1149866.0	675865.0	0.262577	0.531407
     30008.26	0.12125	1500733.0	1154348.0	678702.0	0.262418	0.531109
     30008.78	0.12638	1563901.0	1203146.0	707227.0	0.262244	0.531343
     30009.30	0.13015	1625342.0	1250374.0	735492.0	0.262276	0.530658
     30009.82	0.13793	1685347.0	1296701.0	762030.0	0.262148	0.531593
     30010.34	0.12318	1513263.0	1164428.0	684568.0	0.262038	0.531197
     30010.86	0.12980	1637634.0	1259743.0	741179.0	0.262345	0.530421
     30011.37	0.12250	1515921.0	1166410.0	686066.0	0.262093	0.530712
     30011.89	0.12331	1578015.0	1213956.0	714205.0	0.262283	0.530470
     30012.41	0.12096	1493064.0	1148726.0	676046.0	0.262177	0.530148
     30012.93	0.13383	1693630.0	1303265.0	766466.0	0.262002	0.530838
     30013.45	0.11855	1439887.0	1108292.0	651866.0	0.261745	0.530736
     30013.96	0.12719	1621046.0	1247279.0	734251.0	0.262107	0.529869
     30014.48	0.12855	1628197.0	1252834.0	737651.0	0.262065	0.529693
     30015.00	0.11978	1531201.0	1178268.0	693667.0	0.262007	0.529809
     30015.52	0.13164	1633505.0	1257274.0	740050.0	0.261782	0.529983
     30016.04	0.13524	1679868.0	1292927.0	760985.0	0.261807	0.530050
     30016.56	0.11741	1464329.0	1127074.0	663568.0	0.261772	0.529749
     30017.07	0.13389	1676942.0	1290674.0	760282.0	0.261807	0.529230
     30017.59	0.13088	1666752.0	1282746.0	755100.0	0.261874	0.529908
     30018.11	0.12581	1585357.0	1220010.0	718154.0	0.261951	0.529930
     30018.63	0.12632	1548853.0	1192611.0	702290.0	0.261370	0.529554
     30019.15	0.13634	1735379.0	1335371.0	787088.0	0.262017	0.528624
     30019.67	0.12844	1563209.0	1203351.0	709022.0	0.261631	0.528979
     30020.18	0.12436	1524593.0	1173684.0	691555.0	0.261580	0.528960
     30020.70	0.12026	1512159.0	1164059.0	685841.0	0.261625	0.529022
     30021.22	0.12775	1582975.0	1218612.0	718639.0	0.261593	0.528109
     30021.74	0.11382	1399848.0	1077951.0	635323.0	0.261302	0.528684
     30022.26	0.11878	1493393.0	1150081.0	677894.0	0.261218	0.528597
     30022.78	0.13955	1707592.0	1314484.0	774571.0	0.261640	0.528890
     30023.30	0.11213	1383083.0	1064861.0	627927.0	0.261471	0.528176
     30023.81	0.11052	1377235.0	1060581.0	625420.0	0.261261	0.528149
     30024.33	0.13585	1663537.0	1280956.0	755312.0	0.261339	0.528231
     30024.85	0.12422	1546994.0	1191361.0	702740.0	0.261217	0.527865
     30025.37	0.12381	1562929.0	1203507.0	709599.0	0.261322	0.528295
     30025.89	0.093300	1165891.0	898022.0	529814.0	0.261046	0.527669
     30026.41	0.10635	1337104.0	1029688.0	607114.0	0.261250	0.528295
     30026.93	0.12118	1487568.0	1145711.0	675638.0	0.261117	0.528123
     30027.44	0.11588	1436036.0	1105962.0	652571.0	0.261171	0.527551
     30027.96	0.12990	1584831.0	1220697.0	720396.0	0.261056	0.527376
     30028.48	0.12852	1585098.0	1220978.0	720579.0	0.260994	0.527352
     30029.00	0.14351	1778582.0	1370548.0	808940.0	0.260606	0.527241
     30029.52	0.12090	1510695.0	1163749.0	686999.0	0.260923	0.527069
     30030.04	0.12182	1514503.0	1167123.0	688869.0	0.260546	0.527246
     30030.56	0.12842	1575586.0	1213873.0	716599.0	0.260811	0.527055
     30031.08	0.12635	1541151.0	1187156.0	700964.0	0.260969	0.526859
     30031.60	0.12835	1556876.0	1199515.0	708053.0	0.260764	0.527154
     30032.11	0.13631	1661182.0	1279698.0	755788.0	0.260905	0.526618
     30032.63	0.14572	1794259.0	1382338.0	816280.0	0.260816	0.526774
     30033.15	0.15133	1868895.0	1440146.0	850793.0	0.260603	0.526331
     30033.67	0.086460	1053975.0	812267.0	479968.0	0.260495	0.526110
     30034.19	0.12587	1529976.0	1178691.0	696474.0	0.260848	0.526129
     30034.71	0.13480	1628870.0	1255408.0	741681.0	0.260426	0.526297
     30035.23	0.12571	1537680.0	1185158.0	700214.0	0.260399	0.526245
     30035.75	0.13668	1667924.0	1285279.0	759777.0	0.260604	0.525706
     30036.27	0.13532	1670487.0	1287621.0	760911.0	0.260319	0.526035
     30036.78	0.13063	1579478.0	1217142.0	719149.0	0.260589	0.526192
     30037.30	0.15229	1851383.0	1427329.0	843809.0	0.260128	0.525634
     30037.82	0.11678	1405405.0	1083374.0	640619.0	0.260245	0.525401
     30038.34	0.13423	1621101.0	1249550.0	738496.0	0.260322	0.525923
     30038.86	0.12200	1458988.0	1124682.0	664990.0	0.260243	0.525484
     30039.38	0.13254	1632809.0	1258452.0	744239.0	0.260419	0.525275
     30039.90	0.12607	1547847.0	1193365.0	705780.0	0.260088	0.525229
     30040.42	0.12488	1508252.0	1162716.0	688089.0	0.260193	0.524596
     30040.94	0.11918	1463418.0	1128523.0	667061.0	0.259865	0.525783
     30041.46	0.12075	1473606.0	1135781.0	671937.0	0.260392	0.524911
     30041.98	0.13354	1628543.0	1255526.0	742591.0	0.260131	0.525164
     30042.50	0.12630	1538675.0	1186432.0	701877.0	0.259971	0.524948
     30043.01	0.12641	1544522.0	1190804.0	704874.0	0.260086	0.524365
     30043.53	0.12475	1562826.0	1205207.0	713014.0	0.259844	0.524906
     30044.05	0.12364	1506376.0	1161718.0	687375.0	0.259807	0.524775
     30044.57	0.12017	1478001.0	1139858.0	674746.0	0.259787	0.524323
     30045.09	0.12207	1487550.0	1147202.0	678977.0	0.259805	0.524494
     30045.61	0.11935	1431063.0	1103714.0	653452.0	0.259737	0.524167
     30046.13	0.12900	1534743.0	1183592.0	700927.0	0.259809	0.523905
     30046.65	0.12022	1447525.0	1116527.0	661129.0	0.259632	0.524029
     30047.17	0.11391	1391609.0	1073322.0	635492.0	0.259702	0.524114
     30047.69	0.12969	1557811.0	1201583.0	711500.0	0.259642	0.524020
     30048.21	0.12913	1526655.0	1177599.0	697544.0	0.259601	0.523667
     30048.73	0.12196	1470372.0	1134032.0	671772.0	0.259736	0.523616
     30049.25	0.12820	1529790.0	1179991.0	699364.0	0.259624	0.523091
