# Diamond Light Source
# Instrument: B18-CORE XAS Date: Wed, 27 Jul 2016 22:47:34 BST
# Ring energy:   3.0
# Ring current - start: 299.1
# Primary slits:  vertical gap=  2.4; horizontal gap= 52.0; vertical offset=  0.4; horizontal offset= -1.0
# Secondary slits:  vertical gap=  3.5; horizontal gap= 23.0; vertical offset=  5.3; horizontal offset= -14.5
# OH Mirror Coating: Pt
# White beam filter: 140um PyC
# Crystal cut: Si(311)
# PostDCM slits:  vertical gap= 18.0; horizontal gap= 28.0; vertical offset= -9.1; horizontal offset= -16.5
# Experimental slits:  vertical gap= 28.6; horizontal gap= 45.0; vertical offset=  5.7; horizontal offset= -17.5
# HR Mirror : out; Y: 37.8; Pitch:  0.3; Coating: Pt
# Mirror 2: Pitch:  2.3; Height: -6.4; Yaw: -1.6; Bend:  0.8;
# I0 Stanford sensitivity: 20 nA/V Offsets: 20 pA
# It Stanford sensitivity: 100 nA/V Offsets: 1 pA
# Iref Stanford sensitivity: 20 nA/V Offsets: 1 pA
#
# Ascii output file name: 'Andrea_Sn//ascii/262883_PtSn_OC_Abu_2.dat'
# Nexus output file: '/dls/b18/data/2016/sp10306-9/Andrea_Sn//nexus/262883_PtSn_OC_Abu_2.nxs'
# XML folder and files:
# /dls/b18/data/2016/sp10306-9/xml/Andrea_Sn/
# QEXAFS_Parameters
# Sample_Parameters
# Detector_Parameters
# Output_Parameters
# The contents of these files are also stored in the nexus file.
#
# Sample name: PtSn_OC_Abu
# Sample description: default sample description
# Additional comments: default additional comments
# command: qexafs_energy 29000.0 30050.0 2094 263.53 qexafs_counterTimer01
#
#
# qexafs_energy	   time	       I0	       It	     Iref	  lnI0It	 lnItIref
     29000.24	0.12715	1887926.0	1481993.0	3077518.0	0.242091	-0.730736
     29000.73	0.17613	2595344.0	2037437.0	4232620.0	0.242026	-0.731129
     29001.21	0.14376	2092995.0	1643506.0	3413556.0	0.241764	-0.730923
     29001.69	0.091054	1367285.0	1073241.0	2229444.0	0.242144	-0.731069
     29002.18	0.11307	1682214.0	1320820.0	2743646.0	0.241858	-0.731035
     29002.66	0.12885	1922354.0	1509294.0	3135023.0	0.241908	-0.730995
     29003.14	0.12660	1843173.0	1447068.0	3006564.0	0.241949	-0.731258
     29003.63	0.13353	1971084.0	1547533.0	3214745.0	0.241922	-0.731086
     29004.11	0.12264	1788152.0	1404153.0	2916662.0	0.241748	-0.731006
     29004.59	0.13055	1920989.0	1508445.0	3132608.0	0.241761	-0.730787
     29005.08	0.12618	1849468.0	1452222.0	3016809.0	0.241803	-0.731105
     29005.56	0.12699	1871540.0	1469614.0	3052434.0	0.241762	-0.730940
     29006.05	0.12613	1874897.0	1472264.0	3058989.0	0.241752	-0.731283
     29006.53	0.12456	1856415.0	1457905.0	3028366.0	0.241647	-0.731023
     29007.01	0.13366	1967917.0	1545542.0	3210448.0	0.241601	-0.731036
     29007.50	0.12156	1783144.0	1400367.0	2908557.0	0.241644	-0.730923
     29007.98	0.13320	1932172.0	1517322.0	3151958.0	0.241698	-0.731077
     29008.46	0.11933	1746599.0	1371917.0	2849692.0	0.241461	-0.731002
     29008.95	0.10467	1539012.0	1209102.0	2511071.0	0.241263	-0.730831
     29009.43	0.12674	1868726.0	1467643.0	3048808.0	0.241599	-0.731093
     29009.92	0.12169	1801393.0	1415105.0	2939836.0	0.241357	-0.731150
     29010.40	0.11992	1775149.0	1394837.0	2896820.0	0.241107	-0.730836
     29010.88	0.12355	1809110.0	1421142.0	2951676.0	0.241374	-0.730912
     29011.37	0.11833	1715818.0	1348212.0	2800987.0	0.241111	-0.731193
     29011.85	0.13446	1964870.0	1543233.0	3205878.0	0.241547	-0.731106
     29012.34	0.13377	1979707.0	1555303.0	3230568.0	0.241278	-0.730988
     29012.82	0.12078	1750350.0	1375297.0	2856601.0	0.241146	-0.730963
     29013.30	0.12854	1852347.0	1455314.0	3023480.0	0.241232	-0.731187
     29013.79	0.13662	1995519.0	1568030.0	3257187.0	0.241084	-0.731044
     29014.27	0.12272	1816782.0	1427307.0	2965330.0	0.241277	-0.731199
     29014.76	0.13121	1934989.0	1520018.0	3157574.0	0.241379	-0.731082
     29015.24	0.13838	2052849.0	1613064.0	3351099.0	0.241093	-0.731153
     29015.72	0.10858	1597163.0	1255258.0	2607025.0	0.240888	-0.730869
     29016.21	0.12184	1813111.0	1424774.0	2959247.0	0.241031	-0.730922
     29016.69	0.13530	1992769.0	1565896.0	3252917.0	0.241067	-0.731094
     29017.18	0.11196	1639983.0	1288652.0	2677032.0	0.241089	-0.731112
     29017.66	0.11940	1753693.0	1377947.0	2862403.0	0.241129	-0.731067
     29018.14	0.14393	2111104.0	1659230.0	3445741.0	0.240857	-0.730785
     29018.63	0.11619	1723977.0	1354641.0	2814285.0	0.241097	-0.731172
     29019.11	0.13118	1948211.0	1530974.0	3180370.0	0.241007	-0.731093
     29019.60	0.13091	1949451.0	1532016.0	3181972.0	0.240963	-0.730917
     29020.08	0.13041	1962332.0	1542916.0	3204100.0	0.240459	-0.730757
     29020.57	0.12641	1857916.0	1460431.0	3033876.0	0.240724	-0.731109
     29021.05	0.12769	1890569.0	1486019.0	3086446.0	0.240777	-0.730920
     29021.53	0.11915	1760044.0	1383118.0	2873653.0	0.240998	-0.731244
     29022.02	0.13816	2052814.0	1613693.0	3352176.0	0.240686	-0.731084
     29022.50	0.11904	1752393.0	1377445.0	2861135.0	0.240752	-0.730988
     29022.99	0.13620	1974485.0	1552140.0	3224249.0	0.240673	-0.731065
     29023.47	0.14510	2112675.0	1661002.0	3450335.0	0.240534	-0.731050
     29023.96	0.10602	1539814.0	1210587.0	2514978.0	0.240556	-0.731159
     29024.44	0.11468	1682387.0	1322550.0	2746711.0	0.240652	-0.730843
     29024.92	0.12120	1806870.0	1420329.0	2950438.0	0.240708	-0.731065
     29025.41	0.11612	1717247.0	1350350.0	2805503.0	0.240359	-0.731219
     29025.89	0.11857	1718100.0	1351033.0	2806006.0	0.240350	-0.730893
     29026.38	0.13128	1947228.0	1530590.0	3179758.0	0.240754	-0.731152
     29026.86	0.10952	1609944.0	1266204.0	2630037.0	0.240176	-0.730974
     29027.35	0.12603	1850683.0	1455271.0	3022564.0	0.240363	-0.730913
     29027.83	0.10431	1521246.0	1196122.0	2484264.0	0.240445	-0.730892
     29028.32	0.11882	1749547.0	1375469.0	2857286.0	0.240562	-0.731077
     29028.80	0.099665	1481509.0	1165064.0	2419696.0	0.240285	-0.730866
     29029.28	0.13700	1969185.0	1548538.0	3217095.0	0.240308	-0.731168
     29029.77	0.11788	1714086.0	1347798.0	2800528.0	0.240408	-0.731336
     29030.25	0.13252	1923753.0	1513140.0	3143054.0	0.240091	-0.731008
     29030.74	0.13696	2015165.0	1585127.0	3292780.0	0.240037	-0.731068
     29031.22	0.12954	1887738.0	1484582.0	3084401.0	0.240246	-0.731224
     29031.71	0.11476	1669861.0	1313551.0	2728889.0	0.240006	-0.731160
     29032.19	0.13182	1975630.0	1554017.0	3228283.0	0.240044	-0.731107
     29032.68	0.11982	1765229.0	1388450.0	2884647.0	0.240092	-0.731215
     29033.16	0.12489	1826442.0	1436297.0	2983910.0	0.240302	-0.731166
     29033.65	0.15884	2385100.0	1876311.0	3897224.0	0.239933	-0.730957
     29034.13	0.14419	2141369.0	1684777.0	3499540.0	0.239812	-0.730998
     29034.62	0.13285	1945085.0	1530039.0	3178876.0	0.240012	-0.731234
     29035.10	0.10034	1454452.0	1144197.0	2376891.0	0.239926	-0.731090
     29035.58	0.10964	1605844.0	1263683.0	2624451.0	0.239619	-0.730841
     29036.07	0.13805	2045131.0	1608936.0	3342398.0	0.239889	-0.731115
     29036.55	0.12993	1945763.0	1530961.0	3180022.0	0.239759	-0.730992
     29037.04	0.13237	1936720.0	1523927.0	3165177.0	0.239705	-0.730918
     29037.52	0.13034	1918080.0	1509624.0	3135258.0	0.239464	-0.730851
     29038.01	0.13707	2000120.0	1574123.0	3270084.0	0.239509	-0.731117
     29038.49	0.14487	2132677.0	1677876.0	3485148.0	0.239849	-0.730982
     29038.98	0.12559	1858702.0	1462769.0	3038223.0	0.239547	-0.730942
     29039.46	0.12666	1860082.0	1463834.0	3040492.0	0.239562	-0.730960
     29039.95	0.12941	1875239.0	1475832.0	3065456.0	0.239514	-0.730974
     29040.43	0.13258	1962018.0	1544314.0	3207638.0	0.239394	-0.730955
     29040.92	0.12590	1851856.0	1457574.0	3027429.0	0.239415	-0.730940
     29041.40	0.12313	1803804.0	1419695.0	2948431.0	0.239456	-0.730831
     29041.89	0.12709	1888724.0	1486670.0	3087661.0	0.239363	-0.730875
     29042.37	0.11647	1707559.0	1343820.0	2791334.0	0.239549	-0.731003
     29042.86	0.13308	1982031.0	1559716.0	3239377.0	0.239618	-0.730877
     29043.34	0.12449	1848058.0	1454429.0	3020464.0	0.239522	-0.730797
     29043.83	0.13067	1918169.0	1509642.0	3135014.0	0.239499	-0.730761
     29044.31	0.12465	1815658.0	1428709.0	2966989.0	0.239677	-0.730776
     29044.80	0.12600	1831543.0	1441760.0	2995079.0	0.239294	-0.731106
     29045.28	0.12352	1785809.0	1405821.0	2919274.0	0.239250	-0.730713
     29045.77	0.12037	1739169.0	1368885.0	2843657.0	0.239411	-0.731094
     29046.25	0.12588	1839700.0	1448832.0	3008327.0	0.238845	-0.730626
     29046.74	0.10849	1588001.0	1250216.0	2596090.0	0.239160	-0.730690
     29047.22	0.12567	1862009.0	1466136.0	3044366.0	0.239026	-0.730662
     29047.71	0.12549	1848839.0	1455620.0	3022606.0	0.239126	-0.730687
     29048.19	0.11974	1773214.0	1395840.0	2898375.0	0.239297	-0.730654
     29048.68	0.11842	1746736.0	1375196.0	2855398.0	0.239153	-0.730615
     29049.16	0.12715	1834784.0	1444388.0	2999357.0	0.239241	-0.730712
     29049.65	0.12027	1753585.0	1380670.0	2867800.0	0.239093	-0.730976
     29050.13	0.13048	1874941.0	1476244.0	3065623.0	0.239076	-0.730750
     29050.62	0.13360	1941951.0	1529296.0	3175109.0	0.238886	-0.730534
     29051.10	0.12725	1863572.0	1467552.0	3047000.0	0.238899	-0.730562
     29051.59	0.13868	2018157.0	1589567.0	3299801.0	0.238723	-0.730401
     29052.08	0.12284	1812188.0	1427151.0	2963389.0	0.238855	-0.730653
     29052.56	0.11868	1734627.0	1366019.0	2836115.0	0.238892	-0.730534
     29053.05	0.12619	1818308.0	1432325.0	2972802.0	0.238607	-0.730206
     29053.53	0.11745	1746161.0	1375323.0	2855002.0	0.238731	-0.730384
     29054.02	0.13067	1909987.0	1504440.0	3122437.0	0.238676	-0.730193
     29054.50	0.11755	1673988.0	1318592.0	2737959.0	0.238644	-0.730648
     29054.99	0.12251	1806697.0	1422997.0	2954250.0	0.238735	-0.730480
     29055.47	0.13535	1966326.0	1548842.0	3215555.0	0.238659	-0.730492
     29055.96	0.13258	1913756.0	1508086.0	3130233.0	0.238227	-0.730266
     29056.44	0.13221	1914065.0	1508040.0	3130686.0	0.238418	-0.730441
     29056.93	0.12556	1828549.0	1440607.0	2990350.0	0.238458	-0.730326
     29057.41	0.12166	1760774.0	1386871.0	2878571.0	0.238703	-0.730244
     29057.90	0.13426	1919325.0	1512258.0	3138902.0	0.238370	-0.730269
     29058.39	0.12783	1831713.0	1443197.0	2996144.0	0.238391	-0.730465
     29058.87	0.12482	1796474.0	1415188.0	2938135.0	0.238563	-0.730513
     29059.36	0.12886	1837139.0	1447466.0	3004342.0	0.238395	-0.730244
     29059.84	0.13146	1894152.0	1492708.0	3097078.0	0.238179	-0.729867
     29060.33	0.14630	2090474.0	1647270.0	3418383.0	0.238271	-0.730048
     29060.81	0.10817	1554653.0	1224765.0	2542328.0	0.238503	-0.730331
     29061.30	0.10839	1548737.0	1220778.0	2533600.0	0.237951	-0.730153
     29061.78	0.12668	1846216.0	1454432.0	3019354.0	0.238523	-0.730427
     29062.27	0.12427	1793542.0	1413535.0	2933252.0	0.238099	-0.730018
     29062.76	0.12403	1768722.0	1394166.0	2892544.0	0.237961	-0.729840
     29063.24	0.11430	1630723.0	1285198.0	2667378.0	0.238111	-0.730183
     29063.73	0.13715	1963958.0	1547682.0	3212643.0	0.238203	-0.730336
     29064.21	0.15624	2213981.0	1744880.0	3620777.0	0.238106	-0.730003
     29064.70	0.083423	1202220.0	947945.0	1966412.0	0.237629	-0.729669
     29065.18	0.11244	1590183.0	1253194.0	2600878.0	0.238154	-0.730154
     29065.67	0.083325	1206676.0	950870.0	1973044.0	0.238247	-0.729955
     29066.16	0.12838	1838166.0	1448787.0	3006265.0	0.238042	-0.729972
     29066.64	0.10731	1512224.0	1192129.0	2473937.0	0.237841	-0.730070
     29067.13	0.12224	1773118.0	1397655.0	2900057.0	0.237944	-0.729935
     29067.61	0.13569	1952934.0	1539131.0	3193621.0	0.238115	-0.729937
     29068.10	0.18331	2602343.0	2051402.0	4255830.0	0.237889	-0.729766
     29068.59	0.083117	1173926.0	925345.0	1920411.0	0.237942	-0.730128
     29069.07	0.11176	1610410.0	1269753.0	2633729.0	0.237666	-0.729578
     29069.56	0.12924	1863258.0	1468892.0	3048222.0	0.237818	-0.730050
     29070.04	0.12937	1838670.0	1449732.0	3007995.0	0.237664	-0.729895
     29070.53	0.13137	1884081.0	1485350.0	3080907.0	0.237790	-0.729574
     29071.01	0.13100	1886738.0	1487176.0	3084655.0	0.237970	-0.729561
     29071.50	0.14806	2172496.0	1713303.0	3552829.0	0.237454	-0.729321
     29071.99	0.17206	2525555.0	1991372.0	4129147.0	0.237637	-0.729247
     29072.47	0.078164	1170454.0	922582.0	1913429.0	0.237971	-0.729476
     29072.96	0.11178	1630839.0	1285675.0	2666725.0	0.237811	-0.729567
     29073.44	0.12735	1872951.0	1476952.0	3063449.0	0.237535	-0.729561
     29073.93	0.13097	1933512.0	1524803.0	3162241.0	0.237473	-0.729416
     29074.42	0.13112	1904449.0	1502101.0	3114524.0	0.237328	-0.729212
     29074.90	0.14373	2098207.0	1654852.0	3430945.0	0.237372	-0.729124
     29075.39	0.14002	2049839.0	1616744.0	3352093.0	0.237347	-0.729171
     29075.87	0.16844	2487801.0	1962419.0	4068269.0	0.237221	-0.729040
     29076.36	0.11294	1661438.0	1310108.0	2715350.0	0.237574	-0.728811
     29076.85	0.11148	1642413.0	1295296.0	2684630.0	0.237427	-0.728804
     29077.33	0.12582	1835365.0	1447506.0	3000763.0	0.237401	-0.729025
     29077.82	0.12736	1874290.0	1478457.0	3063787.0	0.237231	-0.728653
     29078.31	0.13589	1946136.0	1534969.0	3181280.0	0.237336	-0.728773
     29078.79	0.12374	1824718.0	1439694.0	2983451.0	0.236995	-0.728650
     29079.28	0.15178	2215920.0	1748197.0	3622705.0	0.237083	-0.728636
     29079.76	0.11320	1628634.0	1284768.0	2661923.0	0.237163	-0.728471
     29080.25	0.11690	1674408.0	1320584.0	2736493.0	0.237386	-0.728603
     29080.74	0.12284	1773243.0	1398901.0	2898345.0	0.237123	-0.728453
     29081.22	0.12530	1757568.0	1386349.0	2872801.0	0.237257	-0.728614
     29081.71	0.12416	1783826.0	1407068.0	2914909.0	0.237252	-0.728330
     29082.20	0.12817	1847787.0	1457801.0	3019427.0	0.237060	-0.728138
     29082.68	0.11703	1671791.0	1319004.0	2732539.0	0.237019	-0.728354
     29083.17	0.13011	1886479.0	1487971.0	3083451.0	0.237299	-0.728636
     29083.65	0.12065	1759378.0	1388251.0	2875450.0	0.236916	-0.728165
     29084.14	0.12345	1797634.0	1418087.0	2936590.0	0.237163	-0.727940
     29084.63	0.12139	1746427.0	1378156.0	2854590.0	0.236826	-0.728182
     29085.11	0.12526	1794433.0	1415523.0	2931622.0	0.237190	-0.728057
     29085.60	0.11941	1741072.0	1373952.0	2845349.0	0.236810	-0.727994
     29086.09	0.11895	1738636.0	1372242.0	2841133.0	0.236655	-0.727757
     29086.57	0.12682	1834194.0	1447615.0	2996947.0	0.236688	-0.727677
     29087.06	0.12894	1825979.0	1441031.0	2982981.0	0.236757	-0.727564
     29087.55	0.11950	1702510.0	1343546.0	2781427.0	0.236791	-0.727652
     29088.03	0.12030	1718816.0	1356435.0	2807288.0	0.236776	-0.727359
     29088.52	0.12673	1800644.0	1421107.0	2941588.0	0.236708	-0.727513
     29089.01	0.13849	2004023.0	1581018.0	3272710.0	0.237088	-0.727549
     29089.49	0.14423	2088418.0	1648645.0	3411941.0	0.236453	-0.727328
     29089.98	0.12141	1765747.0	1393668.0	2884927.0	0.236635	-0.727560
     29090.47	0.12349	1784112.0	1407947.0	2913700.0	0.236788	-0.727291
     29090.95	0.12602	1819607.0	1436089.0	2971389.0	0.236697	-0.727106
     29091.44	0.12189	1747434.0	1378742.0	2853350.0	0.236977	-0.727322
     29091.93	0.11790	1672991.0	1320605.0	2731746.0	0.236523	-0.726851
     29092.41	0.12372	1770613.0	1397580.0	2891002.0	0.236584	-0.726861
     29092.90	0.13659	1993084.0	1573350.0	3253786.0	0.236476	-0.726612
     29093.39	0.11258	1611346.0	1272081.0	2630450.0	0.236416	-0.726501
     29093.87	0.13412	1921424.0	1516838.0	3137266.0	0.236439	-0.726724
     29094.36	0.13439	1907702.0	1505936.0	3113725.0	0.236485	-0.726405
     29094.85	0.13023	1879328.0	1483740.0	3067777.0	0.236348	-0.726387
     29095.33	0.13142	1886148.0	1488963.0	3078503.0	0.236457	-0.726364
     29095.82	0.11529	1643541.0	1297790.0	2683149.0	0.236190	-0.726328
     29096.31	0.13403	1884295.0	1487859.0	3075447.0	0.236216	-0.726112
     29096.79	0.12328	1747177.0	1379675.0	2850702.0	0.236153	-0.725717
     29097.28	0.12842	1827268.0	1442437.0	2980747.0	0.236488	-0.725840
     29097.77	0.14294	2044728.0	1614413.0	3336056.0	0.236293	-0.725818
     29098.25	0.11775	1664438.0	1314294.0	2715187.0	0.236188	-0.725561
     29098.74	0.11976	1701700.0	1343611.0	2776241.0	0.236267	-0.725737
     29099.23	0.12583	1814445.0	1432708.0	2958511.0	0.236213	-0.725120
     29099.71	0.12206	1745856.0	1378462.0	2847566.0	0.236277	-0.725496
     29100.20	0.11629	1674192.0	1322060.0	2730243.0	0.236140	-0.725199
     29100.69	0.12914	1867827.0	1475423.0	3046505.0	0.235831	-0.725050
     29101.17	0.12041	1706589.0	1348105.0	2783828.0	0.235797	-0.725127
     29101.66	0.13378	1918413.0	1515136.0	3128419.0	0.235993	-0.725023
     29102.15	0.11052	1578740.0	1246916.0	2574220.0	0.235954	-0.724873
     29102.64	0.11489	1680678.0	1327322.0	2739993.0	0.236034	-0.724792
     29103.12	0.11003	1589151.0	1255001.0	2589455.0	0.236064	-0.724311
     29103.61	0.11168	1607914.0	1269929.0	2620877.0	0.235977	-0.724548
     29104.10	0.12188	1752365.0	1383818.0	2855140.0	0.236120	-0.724275
     29104.58	0.11724	1699214.0	1342332.0	2769476.0	0.235757	-0.724250
     29105.07	0.11139	1596983.0	1261410.0	2602588.0	0.235886	-0.724276
     29105.56	0.12562	1819559.0	1437511.0	2964811.0	0.235681	-0.723900
     29106.04	0.12991	1858642.0	1467537.0	3026625.0	0.236261	-0.723863
     29106.53	0.13711	2001819.0	1581212.0	3260005.0	0.235865	-0.723537
     29107.02	0.10599	1519717.0	1200724.0	2475528.0	0.235599	-0.723529
     29107.51	0.12204	1770429.0	1398493.0	2882681.0	0.235827	-0.723326
     29107.99	0.13250	1921521.0	1517581.0	3127841.0	0.235999	-0.723225
     29108.48	0.13411	1958688.0	1547178.0	3188721.0	0.235842	-0.723187
     29108.97	0.12019	1735030.0	1370505.0	2823270.0	0.235845	-0.722717
     29109.46	0.14351	2092324.0	1653145.0	3405733.0	0.235596	-0.722781
     29109.94	0.13785	1991972.0	1573573.0	3240083.0	0.235776	-0.722250
     29110.43	0.13466	1917230.0	1514776.0	3119758.0	0.235614	-0.722488
     29110.92	0.12172	1738568.0	1373931.0	2829477.0	0.235386	-0.722416
     29111.40	0.11097	1584054.0	1251640.0	2576174.0	0.235533	-0.721851
     29111.89	0.12079	1758806.0	1389768.0	2859817.0	0.235498	-0.721621
     29112.38	0.14515	2168525.0	1713141.0	3524898.0	0.235719	-0.721523
     29112.87	0.13051	1920805.0	1517545.0	3122349.0	0.235650	-0.721492
     29113.35	0.13468	1956846.0	1546316.0	3180749.0	0.235459	-0.721241
     29113.84	0.12805	1836500.0	1451173.0	2984258.0	0.235489	-0.720979
     29114.33	0.14380	2104347.0	1663530.0	3419427.0	0.235063	-0.720531
     29114.82	0.13116	1880877.0	1486128.0	3055131.0	0.235564	-0.720648
     29115.30	0.12531	1829742.0	1445953.0	2971415.0	0.235406	-0.720270
     29115.79	0.13825	2011688.0	1589753.0	3265561.0	0.235396	-0.719853
     29116.28	0.13587	1990304.0	1573066.0	3231820.0	0.235261	-0.720019
     29116.77	0.13529	2018266.0	1594802.0	3275268.0	0.235489	-0.719650
     29117.25	0.13648	2016105.0	1593681.0	3271891.0	0.235121	-0.719322
     29117.74	0.11702	1740683.0	1375751.0	2823961.0	0.235278	-0.719141
     29118.23	0.11744	1752848.0	1385274.0	2842806.0	0.235344	-0.718894
     29118.72	0.12345	1851943.0	1463763.0	3002624.0	0.235225	-0.718476
     29119.20	0.12606	1864549.0	1473404.0	3022199.0	0.235444	-0.718409
     29119.69	0.11980	1764966.0	1394951.0	2860467.0	0.235272	-0.718126
     29120.18	0.12487	1843823.0	1457252.0	2987380.0	0.235289	-0.717844
     29120.67	0.13004	1928255.0	1523915.0	3123033.0	0.235333	-0.717522
     29121.15	0.12316	1841320.0	1455193.0	2982493.0	0.235344	-0.717621
     29121.64	0.13182	1952307.0	1543165.0	3161254.0	0.235176	-0.717133
     29122.13	0.11967	1764316.0	1394646.0	2855803.0	0.235122	-0.716712
     29122.62	0.11746	1750859.0	1383934.0	2833242.0	0.235176	-0.716491
     29123.10	0.12203	1806520.0	1427711.0	2922646.0	0.235330	-0.716417
     29123.59	0.11009	1637320.0	1294720.0	2648632.0	0.234766	-0.715749
     29124.08	0.12035	1791314.0	1415917.0	2896409.0	0.235172	-0.715694
     29124.57	0.12574	1879730.0	1485713.0	3038133.0	0.235233	-0.715348
     29125.06	0.12112	1827580.0	1444454.0	2953033.0	0.235261	-0.715101
     29125.54	0.12603	1867561.0	1475775.0	3016065.0	0.235450	-0.714770
     29126.03	0.12237	1839443.0	1453818.0	2970488.0	0.235270	-0.714533
     29126.52	0.12749	1873479.0	1480434.0	3023283.0	0.235462	-0.714008
     29127.01	0.12766	1869990.0	1478472.0	3018105.0	0.234924	-0.713620
     29127.49	0.12501	1850696.0	1462897.0	2986120.0	0.235143	-0.713556
     29127.98	0.13177	1958983.0	1549237.0	3160537.0	0.234663	-0.712979
     29128.47	0.12199	1793867.0	1418156.0	2891977.0	0.235016	-0.712583
     29128.96	0.13690	2021434.0	1597659.0	3256797.0	0.235268	-0.712205
     29129.45	0.13206	1943985.0	1537003.0	3131738.0	0.234906	-0.711754
     29129.93	0.12457	1842044.0	1456315.0	2966240.0	0.234967	-0.711386
     29130.42	0.11919	1753123.0	1386151.0	2822945.0	0.234868	-0.711250
     29130.91	0.11589	1704713.0	1348005.0	2742918.0	0.234771	-0.710397
     29131.40	0.13119	1952425.0	1543222.0	3140400.0	0.235200	-0.710478
     29131.89	0.12325	1828394.0	1445392.0	2939684.0	0.235057	-0.709922
     29132.37	0.13030	1896293.0	1499165.0	3047539.0	0.234993	-0.709426
     29132.86	0.12342	1820038.0	1438989.0	2923992.0	0.234917	-0.709009
     29133.35	0.12128	1802144.0	1424552.0	2893602.0	0.235120	-0.708645
     29133.84	0.13473	1965974.0	1553882.0	3155550.0	0.235231	-0.708406
     29134.33	0.12081	1732483.0	1369583.0	2778798.0	0.235049	-0.707512
     29134.81	0.13032	1862980.0	1472729.0	2987786.0	0.235060	-0.707416
     29135.30	0.12712	1821168.0	1439636.0	2919109.0	0.235088	-0.706888
     29135.79	0.13721	2012023.0	1590514.0	3223047.0	0.235083	-0.706270
     29136.28	0.13057	1892275.0	1495831.0	3029096.0	0.235098	-0.705582
     29136.77	0.12933	1856920.0	1467908.0	2971541.0	0.235081	-0.705242
     29137.25	0.12925	1903045.0	1504005.0	3043261.0	0.235324	-0.704798
     29137.74	0.12112	1742873.0	1378030.0	2786918.0	0.234880	-0.704281
     29138.23	0.12984	1868952.0	1477194.0	2985442.0	0.235234	-0.703603
     29138.72	0.12097	1737122.0	1372957.0	2773150.0	0.235263	-0.703017
     29139.21	0.12448	1811886.0	1432331.0	2891658.0	0.235065	-0.702527
     29139.70	0.11925	1731519.0	1368587.0	2760750.0	0.235220	-0.701724
     29140.18	0.12555	1835460.0	1451012.0	2925665.0	0.235034	-0.701261
     29140.67	0.12875	1860345.0	1470724.0	2963118.0	0.235007	-0.700487
     29141.16	0.12629	1837559.0	1452673.0	2924900.0	0.235033	-0.699855
     29141.65	0.11647	1648168.0	1302575.0	2621811.0	0.235321	-0.699522
     29142.14	0.11453	1637898.0	1294280.0	2602987.0	0.235459	-0.698705
     29142.63	0.10892	1533866.0	1212219.0	2437511.0	0.235339	-0.698525
     29143.11	0.12733	1826647.0	1443770.0	2899765.0	0.235224	-0.697372
     29143.60	0.10315	1450315.0	1146188.0	2301009.0	0.235339	-0.696906
     29144.09	0.12341	1787039.0	1412332.0	2833079.0	0.235318	-0.696122
     29144.58	0.11912	1701843.0	1344593.0	2695490.0	0.235620	-0.695489
     29145.07	0.10931	1577510.0	1246749.0	2496778.0	0.235308	-0.694462
     29145.56	0.12409	1798126.0	1420992.0	2844102.0	0.235390	-0.693892
     29146.04	0.11915	1725273.0	1363712.0	2726556.0	0.235175	-0.692829
     29146.53	0.12889	1858947.0	1469662.0	2935718.0	0.234978	-0.691920
     29147.02	0.13522	1950326.0	1541080.0	3076990.0	0.235513	-0.691468
     29147.51	0.11482	1685415.0	1332187.0	2656562.0	0.235190	-0.690211
     29148.00	0.13920	1947280.0	1538815.0	3066110.0	0.235421	-0.689397
     29148.49	0.11937	1728918.0	1366254.0	2720514.0	0.235423	-0.688748
     29148.98	0.13350	1924308.0	1520622.0	3024200.0	0.235447	-0.687527
     29149.46	0.12530	1809527.0	1429925.0	2841738.0	0.235443	-0.686794
     29149.95	0.16937	2435155.0	1924248.0	3819193.0	0.235475	-0.685504
     29150.44	0.10771	1547802.0	1222848.0	2424938.0	0.235653	-0.684623
     29150.93	0.11491	1641978.0	1296966.0	2569196.0	0.235874	-0.683565
     29151.42	0.12764	1856088.0	1466515.0	2901410.0	0.235582	-0.682308
     29151.91	0.13499	1953589.0	1543101.0	3049586.0	0.235874	-0.681212
     29152.40	0.12848	1857385.0	1467718.0	2896662.0	0.235461	-0.679850
     29152.88	0.13027	1891644.0	1494412.0	2946218.0	0.235713	-0.678789
     29153.37	0.13559	1943335.0	1535579.0	3022957.0	0.235498	-0.677328
     29153.86	0.16290	2351071.0	1857279.0	3651864.0	0.235758	-0.676125
     29154.35	0.11544	1668949.0	1318729.0	2589253.0	0.235526	-0.674701
     29154.84	0.12580	1816787.0	1434772.0	2813715.0	0.236064	-0.673500
     29155.33	0.11642	1678856.0	1326077.0	2597157.0	0.235888	-0.672192
     29155.82	0.13367	1945012.0	1535889.0	3002195.0	0.236159	-0.670234
     29156.31	0.13430	1945686.0	1536719.0	3000489.0	0.235965	-0.669126
     29156.79	0.12867	1833765.0	1447972.0	2822204.0	0.236207	-0.667354
     29157.28	0.12592	1793764.0	1416422.0	2756445.0	0.236182	-0.665808
     29157.77	0.13592	1934998.0	1527936.0	2968677.0	0.236188	-0.664199
     29158.26	0.13482	1928461.0	1522452.0	2952210.0	0.236400	-0.662232
     29158.75	0.11188	1592829.0	1257571.0	2434046.0	0.236330	-0.660373
     29159.24	0.12558	1802634.0	1422788.0	2749484.0	0.236631	-0.658795
     29159.73	0.12436	1752373.0	1382967.0	2666665.0	0.236740	-0.656597
     29160.22	0.12448	1808324.0	1427245.0	2746196.0	0.236654	-0.654471
     29160.71	0.12237	1719943.0	1357155.0	2605986.0	0.236901	-0.652421
     29161.19	0.13114	1882376.0	1484876.0	2844732.0	0.237204	-0.650138
     29161.68	0.13524	1966779.0	1551678.0	2965131.0	0.237060	-0.647584
     29162.17	0.12322	1800558.0	1420392.0	2707973.0	0.237164	-0.645267
     29162.66	0.11961	1715601.0	1352882.0	2572570.0	0.237526	-0.642668
     29163.15	0.12049	1740351.0	1372692.0	2602721.0	0.237313	-0.639784
     29163.64	0.12813	1847100.0	1456615.0	2754230.0	0.237502	-0.637023
     29164.13	0.11898	1682087.0	1326235.0	2500094.0	0.237691	-0.633984
     29164.62	0.12853	1816432.0	1431585.0	2690302.0	0.238092	-0.630871
     29165.11	0.11917	1697787.0	1338155.0	2506205.0	0.238034	-0.627478
     29165.60	0.11686	1659688.0	1307862.0	2440555.0	0.238236	-0.623832
     29166.09	0.12263	1741698.0	1372256.0	2552244.0	0.238404	-0.620517
     29166.57	0.12330	1768332.0	1393004.0	2580323.0	0.238574	-0.616452
     29167.06	0.12661	1813102.0	1428200.0	2635222.0	0.238624	-0.612553
     29167.55	0.13328	1909463.0	1503377.0	2761624.0	0.239108	-0.608105
     29168.04	0.13152	1877355.0	1477917.0	2702624.0	0.239230	-0.603589
     29168.53	0.13131	1882814.0	1482073.0	2697521.0	0.239326	-0.598891
     29169.02	0.13045	1827572.0	1438057.0	2601704.0	0.239695	-0.592874
     29169.51	0.12350	1747893.0	1374961.0	2475830.0	0.239986	-0.588150
     29170.00	0.12100	1720065.0	1352785.0	2420361.0	0.240197	-0.581751
     29170.49	0.12113	1771254.0	1392460.0	2476835.0	0.240616	-0.575910
     29170.98	0.12732	1833834.0	1441297.0	2545210.0	0.240865	-0.568670
     29171.47	0.12542	1810531.0	1422455.0	2495873.0	0.241236	-0.562254
     29171.96	0.11912	1687014.0	1325211.0	2304806.0	0.241388	-0.553425
     29172.45	0.12416	1777661.0	1395531.0	2408369.0	0.242023	-0.545675
     29172.94	0.12620	1798544.0	1411940.0	2414815.0	0.242013	-0.536658
     29173.42	0.12892	1840142.0	1443627.0	2444901.0	0.242684	-0.526846
     29173.91	0.13224	1896597.0	1487568.0	2494588.0	0.242919	-0.516981
     29174.40	0.12260	1768999.0	1386960.0	2298324.0	0.243300	-0.505066
     29174.89	0.13175	1902245.0	1490226.0	2440724.0	0.244107	-0.493367
     29175.38	0.13436	1933266.0	1513878.0	2444646.0	0.244536	-0.479226
     29175.87	0.12382	1800385.0	1408677.0	2243343.0	0.245350	-0.465316
     29176.36	0.12640	1827768.0	1429006.0	2238845.0	0.246116	-0.448981
     29176.85	0.13066	1887167.0	1474972.0	2268860.0	0.246438	-0.430638
     29177.34	0.13894	2005153.0	1565764.0	2362873.0	0.247346	-0.411504
     29177.83	0.11241	1672640.0	1305157.0	1930510.0	0.248080	-0.391461
     29178.32	0.11999	1735934.0	1353023.0	1950330.0	0.249204	-0.365657
     29178.81	0.13660	1990342.0	1549643.0	2173617.0	0.250282	-0.338368
     29179.30	0.11223	1640563.0	1275734.0	1736728.0	0.251518	-0.308481
     29179.79	0.12552	1795655.0	1394812.0	1832184.0	0.252610	-0.272749
     29180.28	0.12179	1764591.0	1368676.0	1731773.0	0.254075	-0.235302
     29180.77	0.12332	1750700.0	1355998.0	1643059.0	0.255478	-0.192022
     29181.26	0.12261	1771777.0	1370503.0	1587309.0	0.256805	-0.146862
     29181.75	0.11348	1628186.0	1256135.0	1373054.0	0.259427	-0.0889979
     29182.24	0.10750	1529874.0	1177817.0	1214493.0	0.261523	-0.0306640
     29182.73	0.12091	1730232.0	1328924.0	1285248.0	0.263886	0.0334179
     29183.22	0.11122	1602984.0	1228353.0	1106040.0	0.266193	0.104888
     29183.71	0.12194	1750671.0	1337356.0	1119473.0	0.269305	0.177836
     29184.20	0.10945	1548082.0	1178279.0	909205.0	0.272962	0.259240
     29184.68	0.14886	2135033.0	1619490.0	1155092.0	0.276371	0.337931
     29185.17	0.11088	1573525.0	1188789.0	778187.0	0.280383	0.423724
     29185.66	0.11189	1616105.0	1215796.0	738160.0	0.284620	0.498994
     29186.15	0.12245	1758022.0	1316172.0	741221.0	0.289462	0.574184
     29186.64	0.13363	1900682.0	1416306.0	744822.0	0.294161	0.642662
     29187.13	0.13412	1955536.0	1449150.0	715280.0	0.299687	0.706058
     29187.62	0.12350	1785565.0	1315364.0	614287.0	0.305621	0.761406
     29188.11	0.14328	2062405.0	1510183.0	673830.0	0.311642	0.807008
     29188.60	0.13423	1936520.0	1409414.0	606824.0	0.317719	0.842690
     29189.09	0.10642	1513668.0	1094236.0	459299.0	0.324479	0.868110
     29189.58	0.13118	1914224.0	1375494.0	567830.0	0.330499	0.884746
     29190.07	0.14566	2080364.0	1484604.0	608084.0	0.337395	0.892590
     29190.56	0.11497	1657501.0	1175451.0	481318.0	0.343659	0.892879
     29191.05	0.13056	1855587.0	1308112.0	538727.0	0.349616	0.887131
     29191.54	0.12804	1816076.0	1273844.0	530361.0	0.354639	0.876236
     29192.03	0.13844	1938715.0	1353511.0	571377.0	0.359323	0.862408
     29192.52	0.13307	1866842.0	1298576.0	556758.0	0.362980	0.846893
     29193.01	0.12458	1738909.0	1206220.0	526606.0	0.365766	0.828794
     29193.50	0.14137	2008302.0	1390647.0	617265.0	0.367520	0.812226
     29193.99	0.12823	1830410.0	1266168.0	572314.0	0.368545	0.794063
     29194.48	0.14067	1983721.0	1372261.0	630301.0	0.368515	0.778018
     29194.97	0.12505	1772698.0	1226740.0	572897.0	0.368142	0.761410
     29195.46	0.12764	1789939.0	1240314.0	587636.0	0.366817	0.747012
     29195.95	0.13695	1928159.0	1339170.0	642779.0	0.364516	0.734004
     29196.44	0.12642	1796276.0	1249941.0	607514.0	0.362619	0.721476
     29196.93	0.11371	1619002.0	1129977.0	554791.0	0.359613	0.711361
     29197.42	0.12911	1830667.0	1281150.0	634868.0	0.356922	0.702096
     29197.92	0.12674	1814718.0	1274275.0	636286.0	0.353553	0.694485
     29198.41	0.12846	1803741.0	1270193.0	639284.0	0.350694	0.686575
     29198.90	0.12279	1714841.0	1211604.0	613638.0	0.347375	0.680295
     29199.39	0.12378	1733367.0	1228041.0	624889.0	0.344646	0.675601
     29199.88	0.13018	1832151.0	1301783.0	664965.0	0.341756	0.671756
     29200.37	0.12276	1722286.0	1226426.0	628476.0	0.339548	0.668562
     29200.86	0.12076	1688524.0	1205539.0	618594.0	0.336928	0.667233
     29201.35	0.11910	1668446.0	1194097.0	613670.0	0.334502	0.665688
     29201.84	0.13127	1844615.0	1322153.0	679808.0	0.333009	0.665206
     29202.33	0.11499	1616321.0	1160730.0	596523.0	0.331103	0.665687
     29202.82	0.11684	1616856.0	1163305.0	597246.0	0.329218	0.666691
     29203.31	0.13100	1840476.0	1325740.0	679725.0	0.328053	0.668038
     29203.80	0.12137	1750337.0	1262164.0	645489.0	0.326981	0.670575
     29204.29	0.11611	1644235.0	1187349.0	605932.0	0.325552	0.672711
     29204.78	0.12214	1717979.0	1241494.0	631621.0	0.324833	0.675781
     29205.27	0.12250	1715756.0	1241498.0	629554.0	0.323535	0.679062
     29205.76	0.12630	1756561.0	1272018.0	642595.0	0.322753	0.682845
     29206.25	0.13238	1870628.0	1355646.0	682676.0	0.321996	0.686013
     29206.74	0.13236	1868655.0	1354956.0	680043.0	0.321450	0.689368
     29207.23	0.12429	1767108.0	1282300.0	641387.0	0.320689	0.692778
     29207.72	0.12803	1819021.0	1320892.0	658876.0	0.319991	0.695527
     29208.21	0.12872	1814225.0	1318118.0	655765.0	0.319453	0.698158
     29208.70	0.12506	1754962.0	1275194.0	632810.0	0.319349	0.700683
     29209.19	0.12287	1722863.0	1252311.0	620190.0	0.318997	0.702720
     29209.69	0.12389	1769022.0	1286600.0	636503.0	0.318424	0.703769
     29210.18	0.12696	1818799.0	1322959.0	653945.0	0.318305	0.704603
     29210.67	0.12525	1757562.0	1278950.0	631538.0	0.317888	0.705637
     29211.16	0.12414	1776584.0	1293419.0	638234.0	0.317403	0.706339
     29211.65	0.12845	1776001.0	1292965.0	638293.0	0.317426	0.705896
     29212.14	0.12437	1759883.0	1281934.0	632922.0	0.316877	0.705778
     29212.63	0.12748	1794851.0	1307758.0	646362.0	0.316608	0.704710
     29213.12	0.12081	1680900.0	1225676.0	606703.0	0.315837	0.703208
     29213.61	0.14033	1987072.0	1449415.0	718595.0	0.315502	0.701617
     29214.10	0.13048	1868194.0	1363168.0	677642.0	0.315161	0.698948
     29214.59	0.12446	1791351.0	1307987.0	651968.0	0.314481	0.696249
     29215.08	0.13481	1907512.0	1393175.0	697115.0	0.314214	0.692390
     29215.57	0.13159	1864755.0	1362719.0	684556.0	0.313648	0.688467
     29216.06	0.12911	1836290.0	1342888.0	677191.0	0.312925	0.684624
     29216.56	0.11993	1712869.0	1252507.0	634431.0	0.313023	0.680174
     29217.05	0.12125	1699091.0	1242999.0	633058.0	0.312566	0.674720
     29217.54	0.12213	1762684.0	1290066.0	659749.0	0.312144	0.670589
     29218.03	0.12508	1814195.0	1328358.0	682449.0	0.311698	0.666011
     29218.52	0.12568	1809325.0	1324647.0	683586.0	0.311808	0.661549
     29219.01	0.13445	1944316.0	1424099.0	737525.0	0.311371	0.657995
     29219.50	0.12922	1864619.0	1365664.0	709810.0	0.311416	0.654399
     29219.99	0.13588	1940367.0	1420959.0	740168.0	0.311545	0.652210
     29220.48	0.10276	1465228.0	1073154.0	560164.0	0.311409	0.650128
     29220.97	0.10386	1467424.0	1074890.0	561601.0	0.311290	0.649182
     29221.47	0.11636	1692576.0	1239663.0	647503.0	0.311412	0.649471
     29221.96	0.11059	1585185.0	1160812.0	606058.0	0.311581	0.649899
     29222.45	0.11112	1618783.0	1185529.0	617724.0	0.311486	0.651903
     29222.94	0.13021	1896586.0	1388778.0	722099.0	0.311631	0.654017
     29223.43	0.11739	1652460.0	1209478.0	627324.0	0.312076	0.656481
     29223.92	0.12871	1839424.0	1346693.0	696231.0	0.311801	0.659726
     29224.41	0.10213	1481471.0	1084284.0	558424.0	0.312116	0.663557
     29224.90	0.12452	1802540.0	1319523.0	677031.0	0.311926	0.667309
     29225.39	0.13539	1930561.0	1412846.0	721740.0	0.312205	0.671696
     29225.89	0.11561	1684482.0	1232628.0	627397.0	0.312310	0.675324
     29226.38	0.13432	1908736.0	1396865.0	707636.0	0.312211	0.680056
     29226.87	0.14296	2049184.0	1499303.0	757007.0	0.312441	0.683383
     29227.36	0.13983	1999965.0	1462839.0	735752.0	0.312751	0.687241
     29227.85	0.16863	2432383.0	1778672.0	890912.0	0.313004	0.691377
     29228.34	0.085725	1248717.0	912687.0	455512.0	0.313479	0.694971
     29228.83	0.13045	1865838.0	1363816.0	677940.0	0.313424	0.698983
     29229.32	0.10985	1580550.0	1155005.0	572068.0	0.313668	0.702602
     29229.81	0.13376	1951593.0	1425838.0	702972.0	0.313886	0.707198
     29230.31	0.13626	1944551.0	1420392.0	697785.0	0.314098	0.710777
     29230.80	0.13506	1945085.0	1420123.0	694611.0	0.314562	0.715147
     29231.29	0.14938	2151294.0	1570248.0	765001.0	0.314836	0.719112
     29231.78	0.13965	2030613.0	1481525.0	719181.0	0.315266	0.722714
     29232.27	0.097066	1424107.0	1038459.0	502347.0	0.315807	0.726202
     29232.76	0.12860	1866098.0	1359918.0	655326.0	0.316425	0.730047
     29233.25	0.13640	1978343.0	1441640.0	691845.0	0.316478	0.734175
     29233.75	0.13065	1888386.0	1375273.0	657736.0	0.317070	0.737604
     29234.24	0.13614	1975134.0	1437521.0	685330.0	0.317716	0.740775
     29234.73	0.13954	2005328.0	1459367.0	693667.0	0.317805	0.743766
     29235.22	0.20199	2827387.0	2055748.0	974717.0	0.318713	0.746248
     29235.71	0.089123	1261324.0	916788.0	433984.0	0.319041	0.747869
     29236.20	0.088270	1241500.0	902095.0	426204.0	0.319356	0.749802
     29236.69	0.11434	1605934.0	1166200.0	550297.0	0.319955	0.751048
     29237.19	0.12342	1789436.0	1298955.0	612455.0	0.320340	0.751840
     29237.68	0.12963	1847046.0	1340186.0	631954.0	0.320779	0.751747
     29238.17	0.12293	1728377.0	1253715.0	591367.0	0.321072	0.751430
     29238.66	0.12312	1758134.0	1274682.0	602126.0	0.321556	0.749985
     29239.15	0.14895	2080394.0	1507932.0	713041.0	0.321818	0.748956
     29239.64	0.10670	1513390.0	1096752.0	519753.0	0.321999	0.746755
     29240.14	0.12288	1738208.0	1259624.0	598275.0	0.322041	0.744518
     29240.63	0.11821	1674442.0	1212710.0	577516.0	0.322622	0.741877
     29241.12	0.11942	1653050.0	1197352.0	572162.0	0.322510	0.738446
     29241.61	0.11873	1678953.0	1215728.0	582718.0	0.322827	0.735395
     29242.10	0.12298	1722024.0	1246653.0	599609.0	0.323038	0.731940
     29242.59	0.12060	1699072.0	1230464.0	594100.0	0.322691	0.728099
     29243.09	0.12358	1736129.0	1256464.0	609353.0	0.323356	0.723659
     29243.58	0.11648	1644179.0	1189935.0	579035.0	0.323342	0.720291
     29244.07	0.12419	1766331.0	1278203.0	624627.0	0.323449	0.716056
     29244.56	0.13099	1830630.0	1324458.0	650241.0	0.323657	0.711416
     29245.05	0.12311	1738462.0	1257743.0	620025.0	0.323682	0.707314
     29245.55	0.12093	1694972.0	1226391.0	607118.0	0.323591	0.703108
     29246.04	0.13715	1922338.0	1390769.0	690828.0	0.323685	0.699721
     29246.53	0.12835	1813008.0	1311137.0	654119.0	0.324093	0.695361
     29247.02	0.13547	1888843.0	1366196.0	683807.0	0.323934	0.692110
     29247.51	0.11758	1627704.0	1177172.0	591733.0	0.324055	0.687815
     29248.00	0.12186	1710458.0	1236987.0	623541.0	0.324083	0.685019
     29248.50	0.11903	1683722.0	1217639.0	615898.0	0.324093	0.681588
     29248.99	0.13251	1853645.0	1340151.0	680059.0	0.324372	0.678358
     29249.48	0.12284	1764019.0	1275092.0	649042.0	0.324576	0.675276
     29249.97	0.12556	1791315.0	1294761.0	660382.0	0.324624	0.673263
     29250.46	0.12519	1778361.0	1285121.0	657001.0	0.324839	0.670923
     29250.96	0.13173	1813983.0	1310737.0	671845.0	0.324935	0.668317
     29251.45	0.12912	1815725.0	1311709.0	673365.0	0.325154	0.666799
     29251.94	0.12097	1689639.0	1220883.0	627349.0	0.324941	0.665827
     29252.43	0.13129	1812885.0	1309929.0	674343.0	0.324947	0.663989
     29252.92	0.12998	1766723.0	1276466.0	657585.0	0.325031	0.663277
     29253.42	0.12915	1782021.0	1288019.0	663337.0	0.324643	0.663578
     29253.91	0.13071	1819630.0	1314804.0	677262.0	0.324946	0.663385
     29254.40	0.14604	2053306.0	1483713.0	764426.0	0.324903	0.663178
     29254.89	0.10802	1540963.0	1113611.0	573804.0	0.324800	0.663075
     29255.39	0.12870	1842044.0	1331460.0	685623.0	0.324600	0.663703
     29255.88	0.12834	1820477.0	1315838.0	677083.0	0.324625	0.664435
     29256.37	0.11723	1663623.0	1202353.0	618419.0	0.324717	0.664870
     29256.86	0.12492	1757694.0	1270265.0	652317.0	0.324777	0.666450
     29257.35	0.12658	1776956.0	1284404.0	658544.0	0.324607	0.668019
     29257.85	0.12652	1816188.0	1313484.0	672186.0	0.324057	0.669903
     29258.34	0.17269	2465228.0	1783231.0	911027.0	0.323857	0.671610
     29258.83	0.11345	1634494.0	1182398.0	602653.0	0.323789	0.673958
     29259.32	0.098308	1390208.0	1005614.0	511282.0	0.323855	0.676432
     29259.82	0.11735	1669910.0	1208433.0	613404.0	0.323445	0.678056
     29260.31	0.090233	1282325.0	928174.0	469836.0	0.323211	0.680836
     29260.80	0.11407	1634059.0	1183207.0	597208.0	0.322839	0.683718
     29261.29	0.14932	2135415.0	1546781.0	778052.0	0.322485	0.687138
     29261.79	0.15321	2178069.0	1578156.0	791964.0	0.322182	0.689496
     29262.28	0.12984	1851611.0	1342027.0	671064.0	0.321875	0.693072
     29262.77	0.086048	1241697.0	900161.0	448896.0	0.321661	0.695782
     29263.26	0.079513	1138656.0	825490.0	410200.0	0.321627	0.699332
     29263.75	0.12267	1707297.0	1238127.0	613177.0	0.321312	0.702701
     29264.25	0.12186	1721206.0	1249544.0	616806.0	0.320247	0.705979
     29264.74	0.12552	1826108.0	1325586.0	652032.0	0.320332	0.709516
     29265.23	0.15196	2145848.0	1558055.0	763994.0	0.320097	0.712634
     29265.72	0.13973	1952608.0	1418583.0	692881.0	0.319507	0.716555
     29266.22	0.12412	1796579.0	1305511.0	636246.0	0.319290	0.718765
     29266.71	0.12904	1829297.0	1329634.0	645898.0	0.319028	0.722017
     29267.20	0.12141	1700752.0	1236322.0	598896.0	0.318930	0.724808
     29267.70	0.10815	1541436.0	1120996.0	541158.0	0.318497	0.728262
     29268.19	0.13714	1928952.0	1403506.0	676094.0	0.318003	0.730397
     29268.68	0.13070	1805128.0	1313354.0	631416.0	0.318047	0.732375
     29269.17	0.12537	1737761.0	1265152.0	607156.0	0.317405	0.734162
     29269.67	0.13114	1844849.0	1343167.0	643459.0	0.317367	0.735927
     29270.16	0.14599	2047236.0	1491061.0	713152.0	0.317003	0.737549
     29270.65	0.12181	1713518.0	1248175.0	596587.0	0.316866	0.738213
     29271.14	0.12971	1800429.0	1311766.0	626539.0	0.316651	0.738919
     29271.64	0.13695	1920392.0	1399614.0	668074.0	0.316333	0.739553
     29272.13	0.13331	1832917.0	1335879.0	637567.0	0.316319	0.739685
     29272.62	0.13370	1852194.0	1350561.0	644676.0	0.315851	0.739527
     29273.11	0.13019	1823514.0	1329957.0	635237.0	0.315619	0.738904
     29273.61	0.13204	1869471.0	1363437.0	651683.0	0.315647	0.738206
     29274.10	0.12785	1799439.0	1312528.0	627819.0	0.315520	0.737458
     29274.59	0.12672	1762397.0	1285466.0	615854.0	0.315554	0.735867
     29275.09	0.12206	1729452.0	1261806.0	604881.0	0.315261	0.735268
     29275.58	0.12922	1820831.0	1328605.0	638090.0	0.315163	0.733405
     29276.07	0.12707	1788176.0	1304905.0	628056.0	0.315066	0.731256
     29276.56	0.12674	1756725.0	1282027.0	618211.0	0.315009	0.729368
     29277.06	0.12594	1699074.0	1240152.0	598899.0	0.314849	0.727896
     29277.55	0.11828	1645551.0	1201275.0	580886.0	0.314692	0.726584
     29278.04	0.13203	1856467.0	1355413.0	657054.0	0.314569	0.724095
     29278.54	0.11099	1552532.0	1133337.0	550359.0	0.314721	0.722351
     29279.03	0.12862	1803298.0	1316463.0	641004.0	0.314669	0.719668
     29279.52	0.12070	1670904.0	1220127.0	594940.0	0.314410	0.718250
     29280.02	0.12471	1768020.0	1291206.0	630686.0	0.314284	0.716524
     29280.51	0.11412	1619832.0	1183102.0	578844.0	0.314183	0.714862
     29281.00	0.12910	1807297.0	1320358.0	647412.0	0.313929	0.712675
     29281.49	0.12476	1771601.0	1294146.0	635734.0	0.314033	0.710826
     29281.99	0.11312	1589390.0	1160802.0	571570.0	0.314239	0.708479
     29282.48	0.13135	1821800.0	1331106.0	656167.0	0.313815	0.707350
     29282.97	0.11956	1684562.0	1230926.0	607817.0	0.313739	0.705648
     29283.47	0.13251	1868311.0	1364945.0	674799.0	0.313921	0.704455
     29283.96	0.12936	1782317.0	1302523.0	645309.0	0.313611	0.702329
     29284.45	0.13034	1852740.0	1353781.0	671532.0	0.313764	0.701095
     29284.95	0.13590	1900528.0	1388550.0	689694.0	0.313872	0.699767
     29285.44	0.12392	1735133.0	1268237.0	630329.0	0.313456	0.699141
     29285.93	0.12286	1711753.0	1251247.0	622774.0	0.313377	0.697712
     29286.43	0.12590	1774320.0	1297335.0	646125.0	0.313105	0.697074
     29286.92	0.11561	1645465.0	1202657.0	599728.0	0.313490	0.695812
     29287.41	0.12814	1825143.0	1334034.0	665635.0	0.313451	0.695221
     29287.91	0.13354	1885513.0	1378058.0	688307.0	0.313525	0.694196
     29288.40	0.13538	1887501.0	1379873.0	689692.0	0.313262	0.693502
     29288.89	0.13505	1922642.0	1405828.0	702861.0	0.313074	0.693223
     29289.39	0.10964	1524637.0	1114994.0	557854.0	0.312907	0.692507
     29289.88	0.11826	1660586.0	1214003.0	607389.0	0.313247	0.692509
     29290.37	0.12660	1748736.0	1278542.0	640068.0	0.313173	0.691901
     29290.87	0.13463	1905069.0	1393125.0	697296.0	0.312969	0.692095
     29291.36	0.12720	1801319.0	1317085.0	659945.0	0.313098	0.691020
     29291.85	0.13458	1895453.0	1385667.0	693826.0	0.313276	0.691716
     29292.35	0.13814	1971309.0	1441073.0	721973.0	0.313310	0.691156
     29292.84	0.12132	1729989.0	1264743.0	633398.0	0.313246	0.691525
     29293.33	0.11515	1636016.0	1196163.0	599090.0	0.313145	0.691462
     29293.83	0.12613	1815182.0	1326655.0	664332.0	0.313525	0.691634
     29294.32	0.12182	1717104.0	1255059.0	628360.0	0.313457	0.691825
     29294.81	0.12347	1741063.0	1272541.0	637119.0	0.313480	0.691815
     29295.31	0.12280	1751859.0	1280751.0	640956.0	0.313231	0.692241
     29295.80	0.13858	1972923.0	1441682.0	721313.0	0.313706	0.692493
     29296.29	0.13275	1869109.0	1365868.0	682838.0	0.313672	0.693288
     29296.79	0.10363	1470312.0	1074596.0	537094.0	0.313530	0.693527
     29297.28	0.11133	1571863.0	1148419.0	573703.0	0.313875	0.694030
     29297.77	0.11457	1606396.0	1173317.0	585717.0	0.314158	0.694753
     29298.27	0.11712	1660879.0	1213512.0	605581.0	0.313828	0.695086
     29298.76	0.10480	1507510.0	1101153.0	549056.0	0.314101	0.695913
     29299.26	0.15508	2161204.0	1578291.0	786258.0	0.314323	0.696813
     29299.75	0.11836	1678569.0	1225787.0	610176.0	0.314359	0.697591
     29300.24	0.16036	2258868.0	1649554.0	820577.0	0.314359	0.698252
     29300.74	0.094386	1339787.0	978110.0	486466.0	0.314644	0.698455
     29301.23	0.083191	1167001.0	852109.0	423333.0	0.314478	0.699555
     29301.72	0.10260	1431358.0	1044835.0	518720.0	0.314765	0.700250
     29302.22	0.14032	1933880.0	1411585.0	699804.0	0.314815	0.701668
     29302.71	0.12587	1758734.0	1283203.0	635817.0	0.315235	0.702204
     29303.21	0.17512	2413744.0	1761450.0	872021.0	0.315042	0.703079
     29303.70	0.15851	2219544.0	1619000.0	800568.0	0.315493	0.704242
     29304.19	0.087825	1240401.0	905125.0	447159.0	0.315117	0.705159
     29304.69	0.093970	1306744.0	953628.0	470641.0	0.315020	0.706178
     29305.18	0.13805	1930697.0	1408419.0	694843.0	0.315413	0.706537
     29305.67	0.12321	1731259.0	1262488.0	622663.0	0.315765	0.706834
     29306.17	0.12721	1769980.0	1290839.0	635795.0	0.315676	0.708171
     29306.66	0.14697	2067508.0	1507971.0	742361.0	0.315579	0.708685
     29307.16	0.12159	1681708.0	1226060.0	603043.0	0.316004	0.709573
     29307.65	0.19719	2750910.0	2006206.0	986138.0	0.315686	0.710204
     29308.14	0.084864	1185532.0	864359.0	424575.0	0.315959	0.710900
     29308.64	0.098719	1378471.0	1005214.0	493459.0	0.315774	0.711516
     29309.13	0.14229	1954131.0	1424592.0	698817.0	0.316060	0.712252
     29309.63	0.13940	1927309.0	1405001.0	688805.0	0.316087	0.712835
     29310.12	0.12317	1716146.0	1251092.0	612881.0	0.316064	0.713601
     29310.61	0.14604	2021907.0	1473964.0	721683.0	0.316086	0.714125
     29311.11	0.12702	1776155.0	1294815.0	633812.0	0.316083	0.714371
     29311.60	0.14399	2005064.0	1461925.0	715583.0	0.315922	0.714412
     29312.10	0.11534	1616756.0	1178211.0	576442.0	0.316424	0.714878
     29312.59	0.12205	1710777.0	1247161.0	609861.0	0.316078	0.715394
     29313.08	0.12477	1743460.0	1270849.0	621331.0	0.316186	0.715577
     29313.58	0.12202	1706674.0	1243948.0	608221.0	0.316256	0.715507
     29314.07	0.13068	1834334.0	1337304.0	653589.0	0.316026	0.715932
     29314.57	0.12322	1717946.0	1251885.0	611809.0	0.316479	0.715986
     29315.06	0.12876	1787160.0	1302107.0	635998.0	0.316644	0.716544
     29315.56	0.13007	1828470.0	1332640.0	651021.0	0.316318	0.716375
     29316.05	0.12213	1701244.0	1240038.0	605402.0	0.316218	0.717005
     29316.54	0.12503	1750164.0	1275399.0	623188.0	0.316450	0.716166
     29317.04	0.12410	1724696.0	1257035.0	613976.0	0.316295	0.716555
     29317.53	0.12599	1755916.0	1279547.0	624667.0	0.316485	0.717043
     29318.03	0.11329	1574216.0	1147235.0	560281.0	0.316403	0.716672
     29318.52	0.12243	1676008.0	1221764.0	596844.0	0.316119	0.716395
     29319.02	0.11722	1642957.0	1197403.0	585022.0	0.316343	0.716261
     29319.51	0.13171	1828216.0	1332505.0	650681.0	0.316280	0.716796
     29320.00	0.11487	1593683.0	1161123.0	567621.0	0.316660	0.715689
     29320.50	0.11516	1605329.0	1169799.0	571574.0	0.316497	0.716193
     29320.99	0.12834	1782050.0	1298684.0	634864.0	0.316413	0.715696
     29321.49	0.13237	1856475.0	1352729.0	661571.0	0.316555	0.715262
     29321.98	0.11994	1638019.0	1193590.0	584020.0	0.316522	0.714786
     29322.48	0.13618	1905947.0	1388918.0	679589.0	0.316454	0.714792
     29322.97	0.13695	1906544.0	1389314.0	680104.0	0.316482	0.714320
     29323.47	0.12947	1756211.0	1279764.0	626487.0	0.316483	0.714303
     29323.96	0.12132	1678012.0	1223005.0	599016.0	0.316299	0.713778
     29324.45	0.11703	1616283.0	1178029.0	577228.0	0.316286	0.713361
     29324.95	0.13432	1865107.0	1359392.0	666340.0	0.316281	0.712993
     29325.44	0.12381	1690180.0	1231759.0	604216.0	0.316392	0.712267
     29325.94	0.12447	1718560.0	1252711.0	614603.0	0.316177	0.712089
     29326.43	0.12003	1674245.0	1220723.0	599149.0	0.315919	0.711688
     29326.93	0.13985	1972785.0	1438202.0	705971.0	0.316053	0.711575
     29327.42	0.12406	1734417.0	1264489.0	621348.0	0.316003	0.710532
     29327.92	0.12125	1679319.0	1223865.0	601989.0	0.316374	0.709530
     29328.41	0.12062	1692387.0	1233737.0	606898.0	0.316092	0.709442
     29328.91	0.13485	1887300.0	1376299.0	677271.0	0.315749	0.709082
     29329.40	0.12285	1738006.0	1266980.0	624206.0	0.316102	0.707911
     29329.89	0.12981	1827583.0	1332188.0	656251.0	0.316172	0.708035
     29330.39	0.14851	2037657.0	1485861.0	732616.0	0.315806	0.707128
     29330.88	0.14852	2113829.0	1541190.0	760226.0	0.315946	0.706694
     29331.38	0.10410	1450828.0	1058402.0	522305.0	0.315374	0.706264
     29331.87	0.11055	1578768.0	1151357.0	568578.0	0.315704	0.705558
     29332.37	0.12559	1798143.0	1311459.0	647502.0	0.315614	0.705774
     29332.86	0.12338	1726941.0	1259771.0	622531.0	0.315422	0.704892
     29333.36	0.12551	1777491.0	1296353.0	640802.0	0.315648	0.704590
     29333.85	0.13035	1844140.0	1345427.0	665221.0	0.315302	0.704347
     29334.35	0.12330	1774633.0	1294854.0	640527.0	0.315196	0.703862
     29334.84	0.13457	1909614.0	1393027.0	689303.0	0.315422	0.703553
     29335.34	0.10664	1523285.0	1111411.0	550091.0	0.315239	0.703302
     29335.83	0.11322	1622272.0	1183517.0	586064.0	0.315337	0.702817
     29336.33	0.11867	1705300.0	1244135.0	616599.0	0.315301	0.701977
     29336.82	0.11835	1686637.0	1230453.0	609979.0	0.315354	0.701713
     29337.32	0.11329	1624650.0	1185434.0	587654.0	0.315183	0.701726
     29337.81	0.11615	1658644.0	1210734.0	600673.0	0.314774	0.700931
     29338.31	0.13460	1921874.0	1402963.0	696148.0	0.314714	0.700779
     29338.80	0.10882	1539972.0	1123822.0	557948.0	0.315029	0.700225
     29339.30	0.12810	1827649.0	1333825.0	662573.0	0.314980	0.699675
     29339.79	0.10830	1538844.0	1123392.0	557527.0	0.314679	0.700597
     29340.29	0.11979	1725681.0	1259596.0	625505.0	0.314831	0.699987
     29340.78	0.11350	1635990.0	1194461.0	593349.0	0.314553	0.699668
     29341.28	0.13854	1976968.0	1443360.0	717491.0	0.314591	0.698969
     29341.77	0.12391	1792480.0	1308617.0	650356.0	0.314629	0.699206
     29342.27	0.15110	2146271.0	1567025.0	779237.0	0.314553	0.698619
     29342.76	0.15395	2200313.0	1607092.0	799055.0	0.314173	0.698752
     29343.26	0.11480	1631280.0	1191212.0	592852.0	0.314394	0.697782
     29343.75	0.094692	1348345.0	984582.0	489776.0	0.314416	0.698269
     29344.25	0.13143	1832523.0	1337814.0	665662.0	0.314657	0.698010
     29344.74	0.13528	1939243.0	1416872.0	704657.0	0.313846	0.698496
     29345.24	0.12516	1797741.0	1313010.0	653353.0	0.314209	0.697960
     29345.73	0.13088	1894195.0	1383551.0	688094.0	0.314141	0.698483
     29346.23	0.11805	1709104.0	1248999.0	621362.0	0.313627	0.698184
     29346.72	0.17525	2463072.0	1798950.0	895485.0	0.314206	0.697593
     29347.22	0.10585	1455818.0	1063648.0	529370.0	0.313863	0.697772
     29347.72	0.12138	1735795.0	1268448.0	631001.0	0.313671	0.698242
     29348.21	0.13531	1941050.0	1418658.0	705954.0	0.313518	0.697917
     29348.71	0.13896	1971612.0	1441259.0	716885.0	0.313334	0.698357
     29349.20	0.13704	1961141.0	1433735.0	713245.0	0.313244	0.698213
     29349.70	0.13388	1907160.0	1393862.0	693381.0	0.313537	0.698254
     29350.19	0.13346	1885185.0	1377906.0	685460.0	0.313461	0.698230
     29350.69	0.13452	1899223.0	1389091.0	690943.0	0.312795	0.698348
     29351.18	0.12171	1731882.0	1266209.0	629963.0	0.313181	0.698122
     29351.68	0.12431	1751685.0	1280900.0	636864.0	0.313015	0.698762
     29352.17	0.12437	1695985.0	1240325.0	616551.0	0.312890	0.698988
     29352.67	0.12537	1731617.0	1266552.0	629485.0	0.312757	0.699152
     29353.16	0.12161	1677378.0	1227023.0	609866.0	0.312641	0.699107
     29353.66	0.13200	1857151.0	1358553.0	674999.0	0.312623	0.699464
     29354.16	0.13164	1845335.0	1349831.0	670555.0	0.312681	0.699629
     29354.65	0.12086	1669759.0	1221494.0	607040.0	0.312605	0.699235
     29355.15	0.12343	1721979.0	1259959.0	625685.0	0.312395	0.699987
     29355.64	0.12048	1718903.0	1257814.0	624570.0	0.312311	0.700067
     29356.14	0.13417	1895096.0	1386878.0	688290.0	0.312214	0.700600
     29356.63	0.11490	1630462.0	1193347.0	592448.0	0.312101	0.700254
     29357.13	0.12837	1808972.0	1324363.0	657014.0	0.311827	0.700982
     29357.63	0.11641	1632349.0	1195034.0	592634.0	0.311845	0.701353
     29358.12	0.13016	1796918.0	1315653.0	652402.0	0.311740	0.701427
     29358.62	0.12098	1693530.0	1239923.0	614745.0	0.311766	0.701597
     29359.11	0.11484	1584715.0	1160236.0	575014.0	0.311781	0.701984
     29359.61	0.12086	1679578.0	1230035.0	609275.0	0.311500	0.702528
     29360.10	0.12425	1737348.0	1272267.0	630433.0	0.311559	0.702149
     29360.60	0.12306	1756454.0	1286558.0	637439.0	0.311327	0.702267
     29361.09	0.12606	1789446.0	1310734.0	648997.0	0.311319	0.702914
     29361.59	0.12172	1709488.0	1252097.0	619857.0	0.311374	0.703086
     29362.09	0.13223	1847747.0	1353730.0	670089.0	0.311103	0.703208
     29362.58	0.13269	1845604.0	1352106.0	668926.0	0.311143	0.703745
     29363.08	0.12779	1746957.0	1280248.0	633413.0	0.310822	0.703686
     29363.57	0.12472	1711068.0	1254187.0	620411.0	0.310630	0.703861
     29364.07	0.12493	1713056.0	1255169.0	621050.0	0.311009	0.703614
     29364.57	0.13263	1833824.0	1343837.0	664687.0	0.310874	0.703968
     29365.06	0.12334	1721538.0	1261821.0	624094.0	0.310662	0.704010
     29365.56	0.12209	1682572.0	1233416.0	609818.0	0.310536	0.704382
     29366.05	0.12082	1670599.0	1224711.0	605590.0	0.310477	0.704257
     29366.55	0.12843	1797028.0	1317314.0	651248.0	0.310539	0.704460
     29367.05	0.12687	1769490.0	1297717.0	641393.0	0.310085	0.704719
     29367.54	0.12671	1750509.0	1283148.0	634697.0	0.310590	0.703924
     29368.04	0.12339	1690874.0	1240084.0	613244.0	0.310066	0.704171
     29368.53	0.12898	1768557.0	1296891.0	641209.0	0.310194	0.704370
     29369.03	0.12607	1765770.0	1294504.0	640098.0	0.310459	0.704262
     29369.53	0.13259	1844889.0	1353025.0	669473.0	0.310076	0.703607
     29370.02	0.12974	1770313.0	1298355.0	642346.0	0.310058	0.703726
     29370.52	0.13554	1918604.0	1407046.0	696075.0	0.310105	0.703790
     29371.01	0.12186	1695427.0	1243998.0	615429.0	0.309604	0.703766
     29371.51	0.12211	1708620.0	1253234.0	620050.0	0.309959	0.703683
     29372.01	0.13403	1876027.0	1376264.0	681213.0	0.309784	0.703253
     29372.50	0.12743	1753386.0	1286406.0	636986.0	0.309696	0.702860
     29373.00	0.12501	1734053.0	1271949.0	629872.0	0.309911	0.702789
     29373.49	0.12442	1716804.0	1259496.0	623780.0	0.309753	0.702669
     29373.99	0.12950	1792993.0	1315434.0	652037.0	0.309720	0.701821
     29374.49	0.11922	1670218.0	1225804.0	607354.0	0.309357	0.702240
     29374.98	0.13575	1898385.0	1392730.0	690167.0	0.309738	0.702088
     29375.48	0.11655	1613679.0	1184312.0	586896.0	0.309355	0.702070
     29375.98	0.10919	1518578.0	1114290.0	552510.0	0.309557	0.701501
     29376.47	0.13188	1837365.0	1348209.0	668850.0	0.309555	0.700973
     29376.97	0.11484	1583332.0	1161875.0	576798.0	0.309496	0.700298
     29377.46	0.11725	1633873.0	1199136.0	595132.0	0.309352	0.700573
     29377.96	0.12176	1708574.0	1253807.0	622770.0	0.309475	0.699763
     29378.46	0.11511	1620132.0	1189004.0	590876.0	0.309392	0.699265
     29378.95	0.12217	1715669.0	1258705.0	625897.0	0.309720	0.698653
     29379.45	0.11655	1636960.0	1201331.0	597252.0	0.309411	0.698846
     29379.95	0.10071	1414307.0	1038031.0	516469.0	0.309314	0.698066
     29380.44	0.12277	1735882.0	1273697.0	633867.0	0.309592	0.697840
     29380.94	0.12163	1703926.0	1250842.0	622873.0	0.309118	0.697230
     29381.44	0.11679	1647763.0	1209031.0	602396.0	0.309599	0.696659
     29381.93	0.13244	1802335.0	1322661.0	659170.0	0.309437	0.696419
     29382.43	0.13417	1879690.0	1379562.0	688000.0	0.309341	0.695732
     29382.93	0.14687	2034214.0	1493121.0	745048.0	0.309241	0.695175
     29383.42	0.13220	1835107.0	1346564.0	671980.0	0.309547	0.695083
     29383.92	0.10662	1487804.0	1091832.0	545392.0	0.309444	0.694107
     29384.41	0.13337	1828370.0	1342323.0	670771.0	0.309023	0.693729
     29384.91	0.12973	1801034.0	1322250.0	660719.0	0.309026	0.693761
     29385.41	0.11532	1599468.0	1174056.0	587262.0	0.309207	0.692749
     29385.90	0.13992	1914459.0	1404896.0	703075.0	0.309472	0.692255
     29386.40	0.13114	1790247.0	1314097.0	658005.0	0.309204	0.691692
     29386.90	0.12258	1684750.0	1236622.0	619384.0	0.309234	0.691413
     29387.39	0.13922	1939924.0	1423674.0	713590.0	0.309408	0.690688
     29387.89	0.12808	1749479.0	1284037.0	643947.0	0.309309	0.690148
     29388.39	0.13185	1823256.0	1337960.0	671189.0	0.309478	0.689851
     29388.88	0.11546	1601678.0	1175737.0	590106.0	0.309157	0.689348
     29389.38	0.14661	2077864.0	1524627.0	765262.0	0.309591	0.689287
     29389.88	0.13628	1920611.0	1409663.0	707679.0	0.309293	0.689115
     29390.37	0.13128	1799053.0	1320389.0	663413.0	0.309334	0.688284
     29390.87	0.14314	2002980.0	1470458.0	739226.0	0.309062	0.687726
     29391.37	0.13300	1827388.0	1341567.0	674543.0	0.309049	0.687558
     29391.87	0.12629	1761217.0	1292737.0	650298.0	0.309243	0.687086
     29392.36	0.12340	1745744.0	1281755.0	645321.0	0.308951	0.686238
     29392.86	0.12559	1748198.0	1283707.0	646179.0	0.308834	0.686431
     29393.36	0.13132	1836957.0	1348729.0	679550.0	0.308948	0.685487
     29393.85	0.12668	1778616.0	1305730.0	657965.0	0.309073	0.685366
     29394.35	0.12158	1687393.0	1238857.0	624494.0	0.308996	0.685003
     29394.85	0.13125	1846555.0	1355842.0	683724.0	0.308899	0.684624
     29395.34	0.12478	1735154.0	1273881.0	642719.0	0.309028	0.684116
     29395.84	0.11714	1617384.0	1187342.0	599486.0	0.309093	0.683400
     29396.34	0.12413	1730641.0	1271267.0	641625.0	0.308478	0.683765
     29396.83	0.12787	1758441.0	1291149.0	652007.0	0.308895	0.683233
     29397.33	0.12471	1700490.0	1249167.0	631285.0	0.308440	0.682475
     29397.83	0.12314	1686473.0	1238708.0	625786.0	0.308570	0.682816
     29398.33	0.13207	1807753.0	1327723.0	670836.0	0.308619	0.682696
     29398.82	0.11127	1528444.0	1122631.0	567413.0	0.308575	0.682343
     29399.32	0.12673	1773688.0	1302588.0	658886.0	0.308708	0.681558
     29399.82	0.11251	1572052.0	1154829.0	583866.0	0.308429	0.682036
     29400.31	0.12181	1687391.0	1239539.0	627193.0	0.308444	0.681241
     29400.81	0.11887	1658550.0	1218298.0	616362.0	0.308489	0.681376
     29401.31	0.11100	1527698.0	1122078.0	567941.0	0.308580	0.680920
     29401.80	0.13841	1909534.0	1403050.0	709974.0	0.308211	0.681175
     29402.30	0.12394	1724809.0	1266856.0	641494.0	0.308578	0.680494
     29402.80	0.12679	1738439.0	1277332.0	646807.0	0.308214	0.680481
     29403.30	0.12827	1803625.0	1325356.0	671059.0	0.308117	0.680579
     29403.79	0.13315	1860865.0	1367177.0	692081.0	0.308293	0.680800
     29404.29	0.12605	1767020.0	1298173.0	657606.0	0.308337	0.680107
     29404.79	0.12261	1711570.0	1257283.0	636714.0	0.308458	0.680388
     29405.29	0.11844	1696823.0	1246654.0	631223.0	0.308295	0.680559
     29405.78	0.13226	1860362.0	1366915.0	692208.0	0.308215	0.680425
     29406.28	0.13384	1873322.0	1376131.0	697111.0	0.308437	0.680087
     29406.78	0.12408	1735221.0	1275145.0	645623.0	0.308075	0.680599
     29407.27	0.12572	1772289.0	1302470.0	659640.0	0.308009	0.680324
     29407.77	0.11959	1661370.0	1220584.0	618563.0	0.308313	0.679686
     29408.27	0.12036	1699735.0	1249190.0	632822.0	0.307977	0.680061
     29408.77	0.13121	1836902.0	1349983.0	684013.0	0.307988	0.679870
     29409.26	0.12777	1805812.0	1327318.0	672322.0	0.307850	0.680178
     29409.76	0.12971	1829056.0	1344174.0	680713.0	0.308020	0.680394
     29410.26	0.13432	1898150.0	1395423.0	706403.0	0.307682	0.680767
     29410.76	0.12555	1753952.0	1288866.0	652929.0	0.308109	0.680050
     29411.25	0.11939	1686790.0	1240187.0	628422.0	0.307565	0.679806
     29411.75	0.13685	1918749.0	1410732.0	714468.0	0.307565	0.680326
     29412.25	0.13259	1844358.0	1356212.0	686636.0	0.307436	0.680646
     29412.75	0.11926	1659711.0	1220179.0	617537.0	0.307646	0.681014
     29413.24	0.13115	1828645.0	1344545.0	680760.0	0.307520	0.680601
     29413.74	0.12442	1747425.0	1284643.0	650319.0	0.307662	0.680773
     29414.24	0.12510	1747567.0	1285299.0	650476.0	0.307233	0.681042
     29414.74	0.13127	1860548.0	1368530.0	692370.0	0.307134	0.681372
     29415.23	0.11736	1635618.0	1203015.0	608416.0	0.307190	0.681727
     29415.73	0.14526	2021190.0	1486250.0	751977.0	0.307430	0.681306
     29416.23	0.11949	1697645.0	1248699.0	631527.0	0.307140	0.681717
     29416.73	0.10511	1486730.0	1093464.0	553094.0	0.307228	0.681578
     29417.22	0.12802	1804611.0	1327734.0	671333.0	0.306871	0.681964
     29417.72	0.12096	1719498.0	1264949.0	639471.0	0.307001	0.682146
     29418.22	0.11055	1571460.0	1155863.0	584287.0	0.307158	0.682210
     29418.72	0.12429	1735930.0	1276992.0	645571.0	0.307036	0.682127
     29419.22	0.10983	1543807.0	1135701.0	573923.0	0.307001	0.682510
     29419.71	0.12431	1740066.0	1280205.0	646955.0	0.306903	0.682499
     29420.21	0.10610	1522958.0	1120796.0	566200.0	0.306615	0.682847
     29420.71	0.12934	1860167.0	1368533.0	691412.0	0.306927	0.682759
     29421.21	0.10417	1485321.0	1092920.0	552153.0	0.306778	0.682783
     29421.70	0.11591	1627530.0	1197954.0	605278.0	0.306448	0.682683
     29422.20	0.12517	1771544.0	1303168.0	658338.0	0.307053	0.682835
     29422.70	0.12888	1817140.0	1336862.0	675352.0	0.306939	0.682846
     29423.20	0.12476	1767829.0	1300767.0	656832.0	0.306798	0.683281
     29423.70	0.15708	2245036.0	1651830.0	834556.0	0.306838	0.682739
     29424.19	0.12370	1745780.0	1284789.0	649180.0	0.306607	0.682640
     29424.69	0.10988	1544887.0	1136892.0	574085.0	0.306653	0.683276
     29425.19	0.12260	1735319.0	1276961.0	644816.0	0.306708	0.683273
     29425.69	0.14603	2043196.0	1504038.0	759795.0	0.306362	0.682860
     29426.19	0.12194	1749517.0	1287507.0	650264.0	0.306632	0.683085
     29426.68	0.13967	1986555.0	1462327.0	738460.0	0.306373	0.683217
     29427.18	0.11813	1639587.0	1206961.0	609502.0	0.306339	0.683219
     29427.68	0.14169	1978062.0	1456373.0	735420.0	0.306168	0.683263
     29428.18	0.12498	1768907.0	1302271.0	657919.0	0.306252	0.682783
     29428.68	0.12986	1836217.0	1351813.0	682818.0	0.306261	0.682974
     29429.17	0.12386	1754455.0	1291849.0	652093.0	0.306084	0.683643
     29429.67	0.12978	1810051.0	1332339.0	673219.0	0.306419	0.682621
     29430.17	0.13637	1925987.0	1417849.0	716110.0	0.306298	0.683062
     29430.67	0.14119	1973654.0	1453324.0	734431.0	0.306033	0.682513
     29431.17	0.12842	1829198.0	1346839.0	680476.0	0.306117	0.682723
     29431.66	0.13626	1914321.0	1409803.0	712771.0	0.305913	0.682045
     29432.16	0.13083	1863689.0	1372291.0	693432.0	0.306076	0.682584
     29432.66	0.13165	1854002.0	1365312.0	690571.0	0.305964	0.681619
     29433.16	0.11947	1697342.0	1249972.0	631741.0	0.305942	0.682397
     29433.66	0.12965	1845317.0	1359073.0	687263.0	0.305848	0.681841
     29434.16	0.12791	1819779.0	1340284.0	677739.0	0.305834	0.681875
     29434.65	0.12539	1783593.0	1313413.0	664421.0	0.306001	0.681468
     29435.15	0.12840	1783816.0	1313648.0	664686.0	0.305947	0.681249
     29435.65	0.12058	1702395.0	1254237.0	635095.0	0.305509	0.680508
     29436.15	0.13028	1815427.0	1336808.0	676713.0	0.306036	0.680793
     29436.65	0.11183	1588610.0	1170453.0	592448.0	0.305469	0.680883
     29437.15	0.13169	1865998.0	1373994.0	695930.0	0.306074	0.680228
     29437.64	0.12832	1833271.0	1350032.0	684068.0	0.305974	0.679826
     29438.14	0.12551	1774441.0	1306845.0	662272.0	0.305870	0.679695
     29438.64	0.11719	1673315.0	1232583.0	624696.0	0.305695	0.679602
     29439.14	0.11818	1693583.0	1247454.0	632442.0	0.305742	0.679271
     29439.64	0.11899	1673508.0	1232981.0	625372.0	0.305487	0.678843
     29440.14	0.12439	1752910.0	1291813.0	655462.0	0.305231	0.678462
     29440.63	0.11622	1644016.0	1211087.0	614580.0	0.305624	0.678334
     29441.13	0.12494	1757549.0	1294728.0	657115.0	0.305620	0.678197
     29441.63	0.12348	1749072.0	1288327.0	654260.0	0.305741	0.677595
     29442.13	0.12449	1780692.0	1311647.0	665977.0	0.305718	0.677784
     29442.63	0.12312	1730823.0	1275019.0	647995.0	0.305636	0.676833
     29443.13	0.12949	1824920.0	1344376.0	683253.0	0.305606	0.676820
     29443.63	0.12754	1797649.0	1324323.0	673521.0	0.305578	0.676137
     29444.12	0.13648	1910498.0	1407074.0	715705.0	0.305852	0.676000
     29444.62	0.11927	1685875.0	1242338.0	632051.0	0.305290	0.675780
     29445.12	0.13363	1877252.0	1383268.0	704210.0	0.305360	0.675127
     29445.62	0.12576	1768636.0	1303128.0	663359.0	0.305441	0.675206
     29446.12	0.11641	1654876.0	1219175.0	621190.0	0.305552	0.674293
     29446.62	0.13097	1839473.0	1355251.0	690574.0	0.305492	0.674219
     29447.12	0.12392	1727012.0	1272616.0	648900.0	0.305318	0.673551
     29447.62	0.12314	1740818.0	1282733.0	654140.0	0.305362	0.673427
     29448.11	0.11766	1658865.0	1222456.0	623382.0	0.305272	0.673458
     29448.61	0.13136	1837891.0	1354659.0	691440.0	0.305069	0.672529
     29449.11	0.12828	1808211.0	1332341.0	680626.0	0.305400	0.671680
     29449.61	0.12609	1774089.0	1307645.0	668082.0	0.305059	0.671572
     29450.11	0.12819	1821172.0	1342454.0	685859.0	0.304981	0.671582
     29450.61	0.13070	1850675.0	1363737.0	697099.0	0.305322	0.671057
     29451.11	0.13637	1907706.0	1405830.0	718896.0	0.305274	0.670666
     29451.61	0.12815	1797100.0	1324747.0	677414.0	0.304953	0.670694
     29452.10	0.12541	1756741.0	1294695.0	662620.0	0.305185	0.669829
     29452.60	0.12662	1772429.0	1306343.0	668808.0	0.305119	0.669490
     29453.10	0.12957	1804376.0	1329790.0	681209.0	0.305194	0.668907
     29453.60	0.12750	1798616.0	1326028.0	679301.0	0.304829	0.668879
     29454.10	0.12275	1734153.0	1278479.0	655368.0	0.304848	0.668229
     29454.60	0.11826	1649090.0	1215578.0	623552.0	0.305004	0.667543
     29455.10	0.14317	2008311.0	1480739.0	759803.0	0.304753	0.667237
     29455.60	0.11522	1616918.0	1192344.0	611694.0	0.304601	0.667444
     29456.10	0.11532	1618107.0	1193101.0	612499.0	0.304701	0.666764
     29456.59	0.12799	1794992.0	1323498.0	679742.0	0.304722	0.666320
     29457.09	0.11764	1657099.0	1221754.0	627845.0	0.304781	0.665749
     29457.59	0.10763	1518198.0	1119475.0	575245.0	0.304664	0.665819
     29458.09	0.13435	1915834.0	1412814.0	726330.0	0.304570	0.665334
     29458.59	0.11833	1660413.0	1224421.0	630229.0	0.304598	0.664140
     29459.09	0.12168	1711704.0	1262439.0	649480.0	0.304444	0.664629
     29459.59	0.10143	1404140.0	1035725.0	533187.0	0.304323	0.663985
     29460.09	0.11419	1605143.0	1183844.0	609603.0	0.304446	0.663714
     29460.59	0.11201	1548590.0	1142337.0	588547.0	0.304269	0.663175
     29461.09	0.12777	1806481.0	1332524.0	686880.0	0.304306	0.662671
     29461.59	0.10712	1519148.0	1121010.0	577805.0	0.303920	0.662749
     29462.09	0.13963	1959087.0	1445658.0	745105.0	0.303914	0.662795
     29462.58	0.12879	1806584.0	1333154.0	687651.0	0.303890	0.662021
     29463.08	0.14377	2038885.0	1504441.0	776266.0	0.303982	0.661681
     29463.58	0.12967	1842518.0	1359809.0	701912.0	0.303789	0.661291
     29464.08	0.11089	1552271.0	1145619.0	591526.0	0.303774	0.660995
     29464.58	0.12627	1762064.0	1300265.0	671588.0	0.303918	0.660678
     29465.08	0.13192	1843706.0	1360805.0	702933.0	0.303701	0.660570
     29465.58	0.11651	1611751.0	1189994.0	614986.0	0.303373	0.660104
     29466.08	0.14036	1966997.0	1452404.0	751001.0	0.303288	0.659568
     29466.58	0.14337	2004326.0	1479679.0	764992.0	0.303483	0.659715
     29467.08	0.16570	2322196.0	1714230.0	886813.0	0.303549	0.659085
     29467.58	0.10485	1446635.0	1068309.0	552855.0	0.303163	0.658737
     29468.08	0.095907	1341585.0	990563.0	512707.0	0.303334	0.658569
     29468.58	0.12734	1792049.0	1323546.0	684960.0	0.303045	0.658709
     29469.08	0.13833	1937426.0	1430920.0	740882.0	0.303043	0.658232
     29469.58	0.13197	1812724.0	1338934.0	693440.0	0.302957	0.657964
     29470.07	0.15811	2198629.0	1624033.0	841188.0	0.302921	0.657853
     29470.57	0.12632	1759109.0	1299209.0	673025.0	0.303052	0.657728
     29471.07	0.14547	2037921.0	1505706.0	780318.0	0.302668	0.657316
     29471.57	0.10923	1526325.0	1127472.0	584203.0	0.302885	0.657485
     29472.07	0.13237	1848919.0	1366015.0	707976.0	0.302703	0.657243
     29472.57	0.12189	1700441.0	1256285.0	651212.0	0.302729	0.657079
     29473.07	0.13653	1892081.0	1398516.0	724913.0	0.302266	0.657115
     29473.57	0.12532	1745905.0	1290174.0	669228.0	0.302496	0.656408
     29474.07	0.12328	1722905.0	1272939.0	660073.0	0.302683	0.656733
     29474.57	0.15004	2105165.0	1555576.0	806865.0	0.302548	0.656445
     29475.07	0.11532	1629030.0	1204330.0	624651.0	0.302061	0.656486
     29475.57	0.10635	1471836.0	1087801.0	564481.0	0.302352	0.656007
     29476.07	0.12668	1756431.0	1298647.0	673633.0	0.301961	0.656393
     29476.57	0.12741	1749437.0	1293014.0	670745.0	0.302318	0.656342
     29477.07	0.12687	1766415.0	1306044.0	677598.0	0.301949	0.656204
     29477.57	0.12384	1706593.0	1261942.0	654846.0	0.301847	0.656007
     29478.07	0.12577	1748361.0	1292745.0	670885.0	0.301911	0.655925
     29478.57	0.11963	1670732.0	1235380.0	641308.0	0.301883	0.655624
     29479.07	0.11944	1663923.0	1230238.0	638756.0	0.301970	0.655440
     29479.57	0.11515	1585732.0	1172769.0	608954.0	0.301679	0.655380
     29480.07	0.12434	1760649.0	1302244.0	675807.0	0.301594	0.655937
     29480.57	0.12682	1793012.0	1326180.0	688333.0	0.301594	0.655785
     29481.07	0.11527	1618546.0	1196895.0	621344.0	0.301798	0.655601
     29481.57	0.12964	1848347.0	1366850.0	709391.0	0.301783	0.655857
     29482.07	0.11859	1633835.0	1208891.0	627714.0	0.301227	0.655374
     29482.57	0.14760	2025049.0	1498079.0	777818.0	0.301410	0.655446
     29483.07	0.11936	1664190.0	1231175.0	639219.0	0.301370	0.655477
     29483.57	0.12691	1747120.0	1292400.0	671234.0	0.301468	0.655138
     29484.07	0.12745	1784332.0	1320126.0	685253.0	0.301317	0.655694
     29484.57	0.13161	1835685.0	1358637.0	705254.0	0.300936	0.655679
     29485.07	0.11889	1657830.0	1226541.0	636643.0	0.301312	0.655744
     29485.57	0.12592	1761386.0	1303740.0	676597.0	0.300864	0.655917
     29486.07	0.11932	1672313.0	1237341.0	642144.0	0.301243	0.655907
     29486.57	0.13856	1913581.0	1415942.0	735061.0	0.301181	0.655597
     29487.07	0.11535	1646060.0	1218244.0	632291.0	0.300974	0.655816
     29487.57	0.11866	1628991.0	1205377.0	625852.0	0.301168	0.655434
     29488.07	0.13739	1917103.0	1419024.0	736449.0	0.300846	0.655885
     29488.57	0.12122	1682337.0	1245134.0	646382.0	0.300941	0.655608
     29489.07	0.12484	1709996.0	1265604.0	656866.0	0.300942	0.655825
     29489.57	0.13415	1865537.0	1380581.0	716408.0	0.301045	0.656010
     29490.07	0.13608	1877284.0	1389571.0	720883.0	0.300831	0.656273
     29490.57	0.14381	2034389.0	1505974.0	781704.0	0.300756	0.655719
     29491.07	0.10498	1471048.0	1089269.0	565195.0	0.300468	0.656091
     29491.57	0.12676	1778880.0	1316876.0	683607.0	0.300722	0.655634
     29492.07	0.12305	1730771.0	1281201.0	664994.0	0.300769	0.655775
     29492.57	0.12812	1780485.0	1318036.0	683950.0	0.300743	0.656013
     29493.07	0.13230	1854284.0	1372713.0	712397.0	0.300710	0.655909
     29493.57	0.12573	1744168.0	1291163.0	669976.0	0.300734	0.656057
     29494.07	0.12827	1772079.0	1312237.0	680987.0	0.300420	0.655945
     29494.57	0.12125	1661992.0	1230740.0	638874.0	0.300401	0.655664
     29495.07	0.11726	1624798.0	1203250.0	624579.0	0.300357	0.655704
     29495.57	0.11942	1633080.0	1209457.0	627628.0	0.300296	0.655979
     29496.07	0.12489	1704322.0	1262118.0	655146.0	0.300376	0.655688
     29496.57	0.11409	1572368.0	1164665.0	604232.0	0.300149	0.656231
     29497.07	0.12577	1712595.0	1268701.0	658420.0	0.300016	0.655906
     29497.57	0.14859	2033070.0	1505928.0	781446.0	0.300138	0.656019
     29498.07	0.11044	1501193.0	1112086.0	577100.0	0.300023	0.655977
     29498.57	0.10099	1376810.0	1020039.0	529246.0	0.299928	0.656143
     29499.07	0.10249	1406300.0	1041850.0	540590.0	0.299964	0.656092
     29499.57	0.11706	1600987.0	1186168.0	615794.0	0.299892	0.655571
     29500.07	0.11328	1540406.0	1141400.0	592286.0	0.299790	0.656021
     29500.58	0.12097	1669710.0	1236910.0	641584.0	0.300034	0.656431
     29501.08	0.12878	1737679.0	1287332.0	668407.0	0.299978	0.655430
     29501.58	0.12557	1694340.0	1255247.0	651538.0	0.299961	0.655752
     29502.08	0.12021	1632828.0	1210193.0	627981.0	0.299534	0.656025
     29502.58	0.13514	1811110.0	1342071.0	696788.0	0.299726	0.655488
     29503.08	0.13196	1791385.0	1327394.0	688918.0	0.299771	0.655851
     29503.58	0.12683	1710852.0	1268128.0	658224.0	0.299450	0.655752
     29504.08	0.12770	1746098.0	1293872.0	671567.0	0.299744	0.655781
     29504.58	0.13089	1760057.0	1304125.0	677210.0	0.299814	0.655306
     29505.08	0.13542	1828398.0	1355544.0	704033.0	0.299237	0.655133
     29505.58	0.14460	1952193.0	1447241.0	751517.0	0.299294	0.655320
     29506.08	0.14974	2013979.0	1492550.0	775393.0	0.299626	0.654871
     29506.58	0.10098	1359831.0	1008161.0	523650.0	0.299233	0.655060
     29507.08	0.13140	1752719.0	1299757.0	675264.0	0.298991	0.654829
     29507.58	0.11555	1570987.0	1164637.0	604946.0	0.299295	0.655026
     29508.09	0.13279	1778931.0	1319097.0	685476.0	0.299065	0.654589
     29508.59	0.15644	2110284.0	1564733.0	813380.0	0.299107	0.654272
     29509.09	0.16193	2149015.0	1593125.0	828322.0	0.299312	0.654051
     29509.59	0.17550	2379078.0	1764289.0	917433.0	0.298965	0.653924
     29510.09	0.11019	1518270.0	1125642.0	585317.0	0.299218	0.653955
     29510.59	0.062946	856885.0	635425.0	330683.0	0.299010	0.653134
     29511.09	0.13121	1792413.0	1329257.0	691194.0	0.298943	0.653955
     29511.59	0.12826	1767469.0	1310853.0	681935.0	0.298871	0.653499
     29512.09	0.12695	1719232.0	1275049.0	663287.0	0.298893	0.653532
     29512.59	0.12778	1773809.0	1315554.0	684620.0	0.298871	0.653149
     29513.09	0.12460	1691559.0	1254516.0	652817.0	0.298901	0.653208
     29513.60	0.12862	1787304.0	1325412.0	689820.0	0.298985	0.653048
     29514.10	0.12817	1778870.0	1319402.0	687045.0	0.298800	0.652534
     29514.60	0.12182	1702939.0	1263094.0	657476.0	0.298791	0.652911
     29515.10	0.13035	1772301.0	1314841.0	684909.0	0.298563	0.652185
     29515.60	0.12494	1719733.0	1275738.0	664616.0	0.298644	0.652071
     29516.10	0.13105	1791674.0	1329111.0	692742.0	0.298640	0.651608
     29516.60	0.11480	1559145.0	1156800.0	602874.0	0.298480	0.651705
     29517.10	0.11983	1637697.0	1215092.0	633484.0	0.298471	0.651340
     29517.60	0.12787	1738673.0	1290002.0	672849.0	0.298478	0.650878
     29518.10	0.12142	1660366.0	1231803.0	642356.0	0.298559	0.651092
     29518.61	0.12488	1674454.0	1242524.0	648156.0	0.298342	0.650769
     29519.11	0.11080	1515637.0	1124821.0	586984.0	0.298212	0.650382
     29519.61	0.11904	1606748.0	1192331.0	622133.0	0.298302	0.650512
     29520.11	0.12099	1661265.0	1232532.0	643609.0	0.298509	0.649734
     29520.61	0.13251	1787014.0	1326251.0	692728.0	0.298190	0.649474
     29521.11	0.12618	1699388.0	1261035.0	658660.0	0.298335	0.649481
     29521.61	0.12568	1679122.0	1246413.0	651131.0	0.298001	0.649314
     29522.11	0.12983	1716691.0	1274168.0	666000.0	0.298105	0.648759
     29522.62	0.13305	1798418.0	1334827.0	697593.0	0.298106	0.648921
     29523.12	0.12374	1701213.0	1262504.0	659887.0	0.298244	0.648784
     29523.62	0.13228	1787119.0	1326557.0	693797.0	0.298018	0.648163
     29524.12	0.13090	1751485.0	1299971.0	680009.0	0.298122	0.647991
     29524.62	0.11509	1542406.0	1144870.0	599208.0	0.298052	0.647438
     29525.12	0.12532	1671712.0	1241178.0	649838.0	0.297787	0.647093
     29525.62	0.11859	1594592.0	1183271.0	619659.0	0.298335	0.646869
     29526.12	0.13047	1761674.0	1307977.0	684610.0	0.297783	0.647388
     29526.63	0.11811	1604352.0	1191095.0	624153.0	0.297847	0.646233
     29527.13	0.13349	1815626.0	1348007.0	706811.0	0.297803	0.645619
     29527.63	0.12802	1736372.0	1289283.0	675879.0	0.297712	0.645827
     29528.13	0.13386	1815251.0	1347529.0	706492.0	0.297951	0.645716
     29528.63	0.12777	1733903.0	1287196.0	675031.0	0.297909	0.645463
     29529.13	0.12306	1660138.0	1232770.0	646880.0	0.297637	0.644858
     29529.64	0.13518	1799351.0	1336019.0	701663.0	0.297732	0.643996
     29530.14	0.12065	1623617.0	1205410.0	632934.0	0.297837	0.644209
     29530.64	0.12627	1697421.0	1260242.0	661919.0	0.297806	0.643916
     29531.14	0.13274	1800094.0	1336349.0	702314.0	0.297898	0.643316
     29531.64	0.12308	1631403.0	1211486.0	636496.0	0.297593	0.643625
     29532.14	0.13140	1748326.0	1297690.0	682293.0	0.298073	0.642882
     29532.64	0.12179	1638263.0	1216032.0	639445.0	0.298043	0.642748
     29533.15	0.11452	1514860.0	1124875.0	591717.0	0.297651	0.642399
     29533.65	0.12833	1714849.0	1273189.0	669797.0	0.297800	0.642305
     29534.15	0.12530	1667481.0	1238410.0	651873.0	0.297486	0.641734
     29534.65	0.12035	1582748.0	1175458.0	618822.0	0.297505	0.641595
     29535.15	0.12916	1716477.0	1274625.0	671373.0	0.297622	0.641082
     29535.65	0.11462	1554738.0	1154629.0	608278.0	0.297528	0.640902
     29536.16	0.11207	1476491.0	1096832.0	577995.0	0.297242	0.640616
     29536.66	0.11782	1585272.0	1177379.0	620229.0	0.297465	0.640957
     29537.16	0.11007	1440503.0	1069921.0	564245.0	0.297408	0.639852
     29537.66	0.11978	1617662.0	1201619.0	633635.0	0.297312	0.639952
     29538.16	0.11256	1492368.0	1108497.0	584811.0	0.297359	0.639472
     29538.67	0.11337	1456040.0	1081824.0	570777.0	0.297072	0.639405
     29539.17	0.12719	1691965.0	1256674.0	663605.0	0.297422	0.638537
     29539.67	0.11835	1604330.0	1191760.0	629018.0	0.297275	0.639027
     29540.17	0.13552	1829757.0	1359483.0	717997.0	0.297079	0.638394
     29540.67	0.12339	1682583.0	1250122.0	660185.0	0.297089	0.638476
     29541.17	0.12564	1698287.0	1262137.0	666636.0	0.296814	0.638317
     29541.68	0.13467	1827901.0	1357913.0	717875.0	0.297219	0.637409
     29542.18	0.12326	1660151.0	1233552.0	652291.0	0.297011	0.637162
     29542.68	0.13394	1790932.0	1330672.0	703081.0	0.297052	0.637967
     29543.18	0.12161	1672150.0	1242759.0	657241.0	0.296776	0.637038
     29543.68	0.15085	2039162.0	1515481.0	801718.0	0.296806	0.636731
     29544.19	0.14557	1943247.0	1444374.0	764151.0	0.296684	0.636666
     29544.69	0.11967	1622754.0	1205732.0	638385.0	0.297038	0.635901
     29545.19	0.10698	1474101.0	1095645.0	579702.0	0.296705	0.636584
     29545.69	0.13147	1761220.0	1309320.0	693432.0	0.296499	0.635610
     29546.19	0.13593	1812367.0	1346887.0	713313.0	0.296838	0.635631
     29546.70	0.12887	1741450.0	1294266.0	685874.0	0.296774	0.635005
     29547.20	0.13852	1894975.0	1408434.0	746358.0	0.296727	0.635028
     29547.70	0.12839	1737405.0	1291414.0	684341.0	0.296655	0.635037
     29548.20	0.15808	2124448.0	1579195.0	837064.0	0.296597	0.634770
     29548.71	0.11829	1626833.0	1209715.0	641232.0	0.296250	0.634749
     29549.21	0.12222	1646934.0	1224073.0	649099.0	0.296732	0.634354
     29549.71	0.13147	1768900.0	1315299.0	697520.0	0.296294	0.634288
     29550.21	0.13025	1735633.0	1290141.0	684452.0	0.296621	0.633888
     29550.71	0.12320	1671204.0	1242313.0	659423.0	0.296569	0.633365
     29551.22	0.12514	1683323.0	1251214.0	664315.0	0.296656	0.633113
     29551.72	0.13029	1746414.0	1298290.0	689221.0	0.296517	0.633241
     29552.22	0.12902	1728517.0	1285465.0	682374.0	0.296143	0.633298
     29552.72	0.12426	1658194.0	1232673.0	654429.0	0.296544	0.633177
     29553.23	0.12291	1649299.0	1226385.0	651504.0	0.296280	0.632543
     29553.73	0.12174	1627968.0	1210418.0	643063.0	0.296367	0.632478
     29554.23	0.12800	1686755.0	1254061.0	666195.0	0.296419	0.632560
     29554.73	0.13201	1767523.0	1314713.0	698411.0	0.295961	0.632566
     29555.24	0.12080	1645853.0	1223984.0	650381.0	0.296148	0.632308
     29555.74	0.12411	1678200.0	1247854.0	663277.0	0.296297	0.631988
     29556.24	0.12519	1681614.0	1250474.0	664441.0	0.296231	0.632332
     29556.74	0.12275	1625939.0	1209066.0	643080.0	0.296237	0.631334
     29557.24	0.10576	1402112.0	1042832.0	554549.0	0.296040	0.631540
     29557.75	0.13704	1806200.0	1343871.0	714422.0	0.295671	0.631836
     29558.25	0.10769	1434351.0	1067208.0	567378.0	0.295667	0.631775
     29558.75	0.12981	1751254.0	1302727.0	692765.0	0.295872	0.631524
     29559.26	0.11832	1592722.0	1184615.0	629992.0	0.296027	0.631466
     29559.76	0.14336	1913954.0	1423472.0	757391.0	0.296072	0.630975
     29560.26	0.11620	1535689.0	1142362.0	607678.0	0.295881	0.631208
     29560.76	0.12331	1623334.0	1208035.0	642600.0	0.295487	0.631228
     29561.27	0.13295	1747428.0	1300223.0	691795.0	0.295609	0.631001
     29561.77	0.12568	1625395.0	1209252.0	643441.0	0.295749	0.630927
     29562.27	0.13879	1842977.0	1371140.0	729462.0	0.295740	0.631091
     29562.77	0.12146	1618169.0	1204139.0	640819.0	0.295530	0.630773
     29563.28	0.15013	1988560.0	1479976.0	787902.0	0.295385	0.630407
     29563.78	0.15899	2083086.0	1549877.0	824860.0	0.295675	0.630717
     29564.28	0.10484	1402616.0	1043667.0	555364.0	0.295599	0.630872
     29564.78	0.073858	981956.0	731051.0	389119.0	0.295063	0.630598
     29565.29	0.12244	1611384.0	1199514.0	638347.0	0.295177	0.630790
     29565.79	0.12887	1725600.0	1284257.0	684138.0	0.295394	0.629776
     29566.29	0.13760	1829795.0	1361831.0	725131.0	0.295374	0.630233
     29566.80	0.12226	1620212.0	1206046.0	642496.0	0.295210	0.629742
     29567.30	0.16521	2140644.0	1593462.0	848540.0	0.295198	0.630147
     29567.80	0.14259	1863389.0	1386860.0	738503.0	0.295355	0.630172
     29568.30	0.073329	1002526.0	746300.0	397585.0	0.295150	0.629719
     29568.81	0.13299	1757690.0	1308403.0	696959.0	0.295193	0.629836
     29569.31	0.12631	1695172.0	1261811.0	672086.0	0.295236	0.629917
     29569.81	0.12996	1714127.0	1275857.0	679958.0	0.295286	0.629342
     29570.32	0.12992	1724563.0	1283928.0	684240.0	0.295050	0.629371
     29570.82	0.12640	1667578.0	1241442.0	661412.0	0.295099	0.629652
     29571.32	0.13291	1772292.0	1319472.0	703107.0	0.295042	0.629478
     29571.82	0.12896	1730015.0	1288470.0	686201.0	0.294675	0.630040
     29572.33	0.12566	1659916.0	1236004.0	658669.0	0.294883	0.629418
     29572.83	0.11317	1514411.0	1127780.0	600815.0	0.294775	0.629719
     29573.33	0.12158	1602971.0	1194028.0	636180.0	0.294526	0.629606
     29573.84	0.12270	1627998.0	1212397.0	646116.0	0.294752	0.629376
     29574.34	0.12484	1675909.0	1248499.0	665287.0	0.294414	0.629479
     29574.84	0.11604	1546056.0	1151640.0	613756.0	0.294520	0.629345
     29575.35	0.12832	1709580.0	1273738.0	679154.0	0.294292	0.628863
     29575.85	0.11926	1604274.0	1194977.0	636769.0	0.294544	0.629475
     29576.35	0.11061	1465684.0	1091357.0	581920.0	0.294900	0.628844
     29576.85	0.12279	1623781.0	1209353.0	644538.0	0.294672	0.629307
     29577.36	0.10813	1444069.0	1075503.0	573339.0	0.294676	0.629067
     29577.86	0.10063	1339064.0	997665.0	532069.0	0.294309	0.628644
     29578.36	0.12668	1646519.0	1226987.0	653978.0	0.294102	0.629243
     29578.87	0.12998	1722339.0	1283257.0	684301.0	0.294282	0.628759
     29579.37	0.12424	1667615.0	1243094.0	662662.0	0.293791	0.629094
     29579.87	0.14444	1951924.0	1454746.0	775584.0	0.293984	0.628970
     29580.38	0.10694	1418505.0	1057087.0	563493.0	0.294086	0.629117
     29580.88	0.11434	1527359.0	1138191.0	607141.0	0.294100	0.628434
     29581.38	0.13114	1721155.0	1282646.0	684268.0	0.294070	0.628331
     29581.89	0.13353	1772272.0	1320707.0	704678.0	0.294095	0.628182
     29582.39	0.13195	1756999.0	1309798.0	698500.0	0.293734	0.628693
     29582.89	0.12417	1647270.0	1227981.0	655037.0	0.293748	0.628435
     29583.40	0.15035	1999331.0	1490563.0	795098.0	0.293659	0.628444
     29583.90	0.12105	1594309.0	1188588.0	634489.0	0.293674	0.627701
     29584.40	0.12173	1634495.0	1218598.0	650504.0	0.293633	0.627709
     29584.91	0.12997	1740847.0	1297993.0	692619.0	0.293553	0.628094
     29585.41	0.12205	1584985.0	1181705.0	630369.0	0.293617	0.628408
     29585.91	0.12818	1727756.0	1288347.0	687134.0	0.293463	0.628586
     29586.42	0.13503	1811991.0	1351742.0	721424.0	0.293032	0.627922
     29586.92	0.13363	1787613.0	1332892.0	711488.0	0.293530	0.627748
     29587.42	0.14324	1867446.0	1392722.0	743360.0	0.293312	0.627835
     29587.93	0.14506	1888499.0	1408885.0	752278.0	0.292984	0.627448
     29588.43	0.12768	1678038.0	1251396.0	668179.0	0.293366	0.627459
     29588.93	0.11497	1536222.0	1145804.0	611621.0	0.293220	0.627749
     29589.44	0.12626	1666971.0	1243513.0	664154.0	0.293068	0.627182
     29589.94	0.13883	1833530.0	1367889.0	730395.0	0.292974	0.627438
     29590.45	0.12922	1758623.0	1312176.0	701242.0	0.292844	0.626589
     29590.95	0.14611	1939916.0	1447477.0	773277.0	0.292823	0.626940
     29591.45	0.11515	1531878.0	1142565.0	610339.0	0.293219	0.627016
     29591.96	0.12644	1680461.0	1254322.0	670052.0	0.292473	0.626995
     29592.46	0.11868	1580576.0	1179301.0	630461.0	0.292867	0.626226
     29592.96	0.12145	1614669.0	1205316.0	644087.0	0.292388	0.626663
     29593.47	0.13053	1743231.0	1301443.0	695416.0	0.292267	0.626719
     29593.97	0.12722	1713322.0	1278622.0	683690.0	0.292651	0.626034
     29594.48	0.13811	1861737.0	1389645.0	742782.0	0.292462	0.626401
     29594.98	0.12682	1718131.0	1282282.0	685504.0	0.292596	0.626242
     29595.48	0.12228	1660734.0	1239549.0	662696.0	0.292512	0.626187
     29595.99	0.11701	1572255.0	1173771.0	627653.0	0.292289	0.625989
     29596.49	0.11655	1578392.0	1178243.0	630296.0	0.292382	0.625590
     29596.99	0.12018	1621837.0	1210747.0	648026.0	0.292322	0.625062
     29597.50	0.12439	1689898.0	1261798.0	674982.0	0.292130	0.625607
     29598.00	0.12042	1618628.0	1208565.0	646498.0	0.292145	0.625619
     29598.51	0.12410	1695183.0	1265895.0	677331.0	0.292011	0.625375
     29599.01	0.11933	1605859.0	1198965.0	641743.0	0.292200	0.625026
     29599.51	0.12268	1661369.0	1240120.0	663900.0	0.292434	0.624832
     29600.02	0.12346	1670563.0	1247611.0	667969.0	0.291930	0.624744
     29600.52	0.12741	1738494.0	1298282.0	694953.0	0.291977	0.624953
     29601.03	0.12423	1682660.0	1256835.0	673097.0	0.291779	0.624462
     29601.53	0.13770	1899023.0	1418145.0	759641.0	0.291990	0.624259
     29602.03	0.13495	1829716.0	1366501.0	731972.0	0.291907	0.624266
     29602.54	0.12195	1660579.0	1240625.0	664400.0	0.291551	0.624486
     29603.04	0.12576	1725941.0	1289345.0	691065.0	0.291638	0.623656
     29603.55	0.11798	1591130.0	1188400.0	636945.0	0.291837	0.623680
     29604.05	0.14076	1883913.0	1407346.0	754487.0	0.291645	0.623423
     29604.55	0.11604	1574028.0	1175970.0	630338.0	0.291545	0.623592
     29605.06	0.11893	1584559.0	1183696.0	634615.0	0.291664	0.623379
     29605.56	0.11590	1556943.0	1163312.0	624134.0	0.291453	0.622661
     29606.07	0.14444	1902487.0	1421551.0	762517.0	0.291413	0.622879
     29606.57	0.12789	1703969.0	1273071.0	682876.0	0.291528	0.622874
     29607.07	0.13057	1718531.0	1284176.0	689085.0	0.291353	0.622508
     29607.58	0.12948	1712815.0	1280447.0	687352.0	0.290929	0.622118
     29608.08	0.13807	1828488.0	1366335.0	733850.0	0.291357	0.621583
     29608.59	0.12365	1626929.0	1215617.0	652718.0	0.291442	0.621862
     29609.09	0.12741	1688060.0	1261341.0	677623.0	0.291404	0.621340
     29609.60	0.12282	1658470.0	1239246.0	665412.0	0.291392	0.621852
     29610.10	0.12658	1701303.0	1271468.0	682938.0	0.291222	0.621523
     29610.60	0.12738	1717555.0	1283589.0	689791.0	0.291242	0.621027
     29611.11	0.13389	1780748.0	1330799.0	715247.0	0.291254	0.620907
     29611.61	0.12458	1654811.0	1237056.0	665080.0	0.290952	0.620582
     29612.12	0.11008	1459569.0	1091040.0	586440.0	0.291010	0.620816
     29612.62	0.12752	1721511.0	1286943.0	692080.0	0.290933	0.620323
     29613.13	0.12454	1661815.0	1242345.0	668166.0	0.290910	0.620219
     29613.63	0.11339	1490339.0	1114047.0	599384.0	0.291004	0.619852
     29614.13	0.13250	1775219.0	1327130.0	713906.0	0.290905	0.620023
     29614.64	0.11585	1582392.0	1182948.0	636444.0	0.290928	0.619868
     29615.14	0.12696	1690956.0	1264432.0	680591.0	0.290671	0.619417
     29615.65	0.10575	1395665.0	1043282.0	561819.0	0.290999	0.618947
     29616.15	0.12346	1668786.0	1247578.0	671545.0	0.290892	0.619378
     29616.66	0.11433	1512892.0	1131071.0	609314.0	0.290858	0.618587
     29617.16	0.11378	1510293.0	1129323.0	608586.0	0.290685	0.618235
     29617.67	0.11595	1543762.0	1154328.0	622319.0	0.290704	0.617821
     29618.17	0.11944	1613354.0	1206182.0	650262.0	0.290855	0.617840
     29618.68	0.11402	1563670.0	1169122.0	629980.0	0.290783	0.618320
     29619.18	0.12366	1690343.0	1263848.0	681724.0	0.290770	0.617291
     29619.68	0.11561	1542967.0	1153942.0	622532.0	0.290523	0.617144
     29620.19	0.11811	1611194.0	1204625.0	649968.0	0.290807	0.617000
     29620.69	0.13202	1800014.0	1346108.0	726199.0	0.290577	0.617149
     29621.20	0.12865	1755236.0	1312907.0	708450.0	0.290360	0.616920
     29621.70	0.12520	1697423.0	1269433.0	685146.0	0.290541	0.616694
     29622.21	0.13328	1858758.0	1390401.0	750966.0	0.290316	0.615987
     29622.71	0.14132	1921785.0	1437691.0	776010.0	0.290216	0.616628
     29623.22	0.13301	1823514.0	1363941.0	736840.0	0.290387	0.615763
     29623.72	0.13677	1865379.0	1395488.0	754048.0	0.290220	0.615543
     29624.23	0.12404	1683345.0	1259446.0	680475.0	0.290111	0.615636
     29624.73	0.10600	1446177.0	1081618.0	584725.0	0.290465	0.615072
     29625.24	0.13458	1835796.0	1373257.0	742427.0	0.290293	0.615016
     29625.74	0.13193	1783717.0	1334059.0	721271.0	0.290473	0.614967
     29626.25	0.13633	1836914.0	1374432.0	743199.0	0.290046	0.614832
     29626.75	0.12484	1693978.0	1267285.0	685622.0	0.290203	0.614306
     29627.26	0.14584	1943638.0	1453918.0	786718.0	0.290299	0.614147
     29627.76	0.13793	1864650.0	1395359.0	755206.0	0.289922	0.613916
     29628.27	0.12172	1627431.0	1217634.0	659337.0	0.290093	0.613430
     29628.77	0.12476	1683881.0	1259856.0	682180.0	0.290104	0.613459
     29629.28	0.13033	1751917.0	1310994.0	709725.0	0.289925	0.613663
     29629.78	0.13768	1867155.0	1397323.0	756780.0	0.289858	0.613241
     29630.28	0.13637	1836674.0	1374018.0	744608.0	0.290217	0.612637
     29630.79	0.12532	1661467.0	1242983.0	673360.0	0.290187	0.612989
     29631.29	0.12786	1691204.0	1265447.0	686001.0	0.290015	0.612302
     29631.80	0.12729	1687263.0	1262854.0	684561.0	0.289733	0.612352
     29632.31	0.12332	1630289.0	1220142.0	661425.0	0.289790	0.612326
     29632.81	0.12556	1670912.0	1250871.0	678332.0	0.289529	0.611959
     29633.32	0.12366	1650687.0	1235628.0	670249.0	0.289612	0.611685
     29633.82	0.12722	1670613.0	1250574.0	678527.0	0.289588	0.611434
     29634.33	0.12341	1645797.0	1231831.0	668601.0	0.289723	0.611069
     29634.83	0.12550	1641936.0	1228918.0	667066.0	0.289742	0.611000
     29635.34	0.13637	1813922.0	1357551.0	736935.0	0.289809	0.610938
     29635.84	0.13293	1754745.0	1313981.0	713201.0	0.289262	0.611053
     29636.35	0.11228	1496724.0	1120152.0	607917.0	0.289814	0.611181
     29636.85	0.12317	1617843.0	1211223.0	658103.0	0.289463	0.610024
     29637.36	0.12028	1604917.0	1201295.0	652579.0	0.289672	0.610223
     29637.86	0.12367	1642416.0	1229741.0	668072.0	0.289365	0.610163
     29638.37	0.12680	1692706.0	1267384.0	688693.0	0.289373	0.609915
     29638.87	0.11603	1531953.0	1147247.0	623432.0	0.289178	0.609881
     29639.38	0.11784	1590084.0	1190404.0	646765.0	0.289494	0.610065
     29639.88	0.12911	1756868.0	1315546.0	715257.0	0.289281	0.609365
     29640.39	0.12147	1599204.0	1197556.0	651377.0	0.289223	0.608950
     29640.89	0.12136	1639051.0	1227427.0	667657.0	0.289197	0.608901
     29641.40	0.12991	1761776.0	1319744.0	717539.0	0.288885	0.609366
     29641.90	0.13089	1755728.0	1314839.0	715205.0	0.289169	0.608900
     29642.41	0.12563	1701239.0	1273976.0	692994.0	0.289214	0.608877
     29642.91	0.13984	1888510.0	1414788.0	769689.0	0.288808	0.608748
     29643.42	0.11481	1559732.0	1168594.0	635958.0	0.288713	0.608424
     29643.93	0.13551	1809662.0	1355634.0	737928.0	0.288871	0.608178
     29644.43	0.11670	1556928.0	1166697.0	634991.0	0.288538	0.608321
     29644.94	0.12880	1706401.0	1278466.0	695896.0	0.288726	0.608216
     29645.44	0.11874	1586222.0	1188197.0	646976.0	0.288918	0.607883
     29645.95	0.13099	1757140.0	1316717.0	716841.0	0.288546	0.608043
     29646.45	0.11587	1572252.0	1178357.0	641709.0	0.288388	0.607741
     29646.96	0.13187	1746100.0	1308125.0	712167.0	0.288790	0.608038
     29647.46	0.13076	1788764.0	1339984.0	729831.0	0.288867	0.607600
     29647.97	0.11700	1555415.0	1165298.0	635011.0	0.288766	0.607090
     29648.48	0.15302	2074393.0	1554597.0	847012.0	0.288452	0.607257
     29648.98	0.11705	1589791.0	1191162.0	648981.0	0.288673	0.607281
     29649.49	0.11768	1604132.0	1201927.0	655125.0	0.288657	0.606855
     29649.99	0.13450	1825300.0	1367956.0	745554.0	0.288427	0.606945
     29650.50	0.13076	1721973.0	1290654.0	703816.0	0.288322	0.606387
     29651.00	0.12490	1669643.0	1251422.0	681962.0	0.288329	0.607062
     29651.51	0.12647	1721312.0	1289905.0	703397.0	0.288518	0.606402
     29652.02	0.13550	1839811.0	1379328.0	751974.0	0.288066	0.606650
     29652.52	0.15464	2104607.0	1577701.0	860275.0	0.288160	0.606472
     29653.03	0.098736	1321956.0	990957.0	540719.0	0.288197	0.605771
     29653.53	0.12657	1705747.0	1278563.0	697697.0	0.288266	0.605707
     29654.04	0.10952	1480427.0	1110035.0	605347.0	0.287939	0.606345
     29654.54	0.12643	1730549.0	1297519.0	707721.0	0.287985	0.606159
     29655.05	0.11866	1590512.0	1192573.0	650897.0	0.287943	0.605517
     29655.56	0.14514	1973165.0	1479680.0	806964.0	0.287813	0.606302
     29656.06	0.12107	1658724.0	1243678.0	678308.0	0.287976	0.606227
     29656.57	0.15657	2112583.0	1584037.0	864447.0	0.287935	0.605642
     29657.07	0.092970	1269090.0	951780.0	519374.0	0.287721	0.605710
     29657.58	0.095814	1302631.0	977137.0	533345.0	0.287514	0.605458
     29658.09	0.10638	1425432.0	1069013.0	583465.0	0.287739	0.605507
     29658.59	0.11013	1469480.0	1102298.0	601771.0	0.287512	0.605275
     29659.10	0.12766	1750057.0	1312737.0	716343.0	0.287534	0.605710
     29659.60	0.11738	1586931.0	1190354.0	649896.0	0.287551	0.605194
     29660.11	0.12388	1673529.0	1255404.0	685285.0	0.287477	0.605378
     29660.62	0.12664	1720804.0	1290924.0	704856.0	0.287433	0.605120
     29661.12	0.10870	1462724.0	1097728.0	599326.0	0.287058	0.605192
     29661.63	0.12318	1655004.0	1241555.0	677708.0	0.287439	0.605403
     29662.13	0.13522	1819477.0	1365187.0	745531.0	0.287258	0.604950
     29662.64	0.12929	1771778.0	1329567.0	726193.0	0.287130	0.604793
     29663.15	0.12825	1711789.0	1284481.0	701646.0	0.287184	0.604681
     29663.65	0.14143	1892804.0	1420429.0	775940.0	0.287100	0.604639
     29664.16	0.13471	1791236.0	1344185.0	734129.0	0.287118	0.604858
     29664.66	0.16134	2168034.0	1627074.0	889077.0	0.287037	0.604355
     29665.17	0.14350	1929721.0	1448104.0	791117.0	0.287120	0.604565
     29665.68	0.097379	1330905.0	998859.0	545845.0	0.287001	0.604279
     29666.18	0.098374	1314744.0	987043.0	539321.0	0.286684	0.604403
     29666.69	0.12263	1650593.0	1239035.0	677213.0	0.286802	0.604102
     29667.19	0.14384	1932214.0	1450304.0	792694.0	0.286893	0.604091
     29667.70	0.12279	1651225.0	1240003.0	677740.0	0.286404	0.604105
     29668.21	0.14725	2005983.0	1505851.0	823172.0	0.286776	0.603948
     29668.71	0.14907	2009386.0	1508374.0	824992.0	0.286797	0.603414
     29669.22	0.11466	1560182.0	1171431.0	640508.0	0.286576	0.603720
     29669.73	0.12098	1611097.0	1209618.0	661539.0	0.286611	0.603491
     29670.23	0.12433	1668935.0	1253028.0	685231.0	0.286623	0.603562
     29670.74	0.13677	1814672.0	1362919.0	745366.0	0.286276	0.603509
     29671.25	0.14289	1891788.0	1420637.0	777391.0	0.286417	0.602917
     29671.75	0.12771	1679320.0	1261112.0	690122.0	0.286395	0.602881
     29672.26	0.13729	1844543.0	1385249.0	757743.0	0.286352	0.603291
     29672.76	0.12526	1687098.0	1267151.0	693355.0	0.286239	0.602984
     29673.27	0.11862	1621903.0	1218089.0	666350.0	0.286317	0.603223
     29673.78	0.11688	1592207.0	1195756.0	654624.0	0.286342	0.602473
     29674.28	0.13290	1804383.0	1355557.0	741822.0	0.286006	0.602858
     29674.79	0.12172	1629646.0	1223758.0	669957.0	0.286436	0.602468
     29675.30	0.12823	1741884.0	1308488.0	716259.0	0.286095	0.602586
     29675.80	0.12899	1746643.0	1312273.0	718412.0	0.285935	0.602473
     29676.31	0.11863	1584263.0	1190194.0	651656.0	0.286003	0.602355
     29676.82	0.13094	1780038.0	1337433.0	732178.0	0.285883	0.602484
     29677.32	0.11281	1522472.0	1143803.0	626676.0	0.285977	0.601684
     29677.83	0.11826	1569555.0	1178959.0	645747.0	0.286160	0.601979
     29678.34	0.13258	1762201.0	1324002.0	725463.0	0.285905	0.601604
     29678.84	0.11090	1492169.0	1120702.0	614236.0	0.286275	0.601331
     29679.35	0.12467	1615588.0	1213725.0	664867.0	0.286005	0.601862
     29679.86	0.12105	1622957.0	1219658.0	668233.0	0.285679	0.601689
     29680.36	0.11973	1595308.0	1198744.0	656810.0	0.285792	0.601635
     29680.87	0.12318	1647695.0	1238135.0	678397.0	0.285771	0.601629
     29681.38	0.11921	1604338.0	1205569.0	660789.0	0.285760	0.601272
     29681.88	0.12566	1704206.0	1281058.0	702242.0	0.285413	0.601164
     29682.39	0.13025	1752083.0	1316758.0	721837.0	0.285633	0.601129
     29682.90	0.13276	1775333.0	1334502.0	731632.0	0.285430	0.601036
     29683.40	0.13246	1776809.0	1335911.0	732302.0	0.285206	0.601176
     29683.91	0.12936	1753302.0	1317800.0	722524.0	0.285537	0.600968
     29684.42	0.13225	1789417.0	1345314.0	737804.0	0.285262	0.600705
     29684.92	0.11358	1522171.0	1144066.0	627325.0	0.285549	0.600879
     29685.43	0.13092	1718639.0	1292049.0	708963.0	0.285303	0.600181
     29685.94	0.12145	1614551.0	1213882.0	665830.0	0.285233	0.600544
     29686.44	0.12380	1672473.0	1257094.0	689862.0	0.285501	0.600066
     29686.95	0.12429	1687102.0	1267949.0	695809.0	0.285612	0.600081
     29687.46	0.12981	1770493.0	1331085.0	730499.0	0.285264	0.600022
     29687.97	0.12168	1646835.0	1238151.0	679521.0	0.285236	0.599986
     29688.47	0.12873	1753987.0	1318751.0	723980.0	0.285206	0.599677
     29688.98	0.12972	1724729.0	1296923.0	711979.0	0.285075	0.599701
     29689.49	0.13467	1806602.0	1358540.0	745735.0	0.285037	0.599796
     29689.99	0.12509	1703095.0	1280740.0	703003.0	0.285009	0.599832
     29690.50	0.12443	1699990.0	1278371.0	702012.0	0.285036	0.599391
     29691.01	0.13627	1854492.0	1395109.0	765918.0	0.284638	0.599653
     29691.51	0.12102	1671392.0	1257205.0	690452.0	0.284766	0.599300
     29692.02	0.14195	1906912.0	1433776.0	787953.0	0.285174	0.598628
     29692.53	0.12305	1646209.0	1238643.0	680234.0	0.284459	0.599335
     29693.04	0.11484	1532990.0	1153169.0	633463.0	0.284706	0.599067
     29693.54	0.12940	1762582.0	1325641.0	728354.0	0.284884	0.598864
     29694.05	0.12023	1623964.0	1221705.0	671513.0	0.284623	0.598469
     29694.56	0.12597	1700777.0	1278887.0	702859.0	0.285095	0.598589
     29695.06	0.12569	1714414.0	1289722.0	708870.0	0.284645	0.598510
     29695.57	0.12237	1662650.0	1250885.0	687896.0	0.284561	0.597969
     29696.08	0.12221	1660025.0	1248799.0	686864.0	0.284650	0.597801
     29696.59	0.10496	1403936.0	1056495.0	580553.0	0.284323	0.598731
     29697.09	0.11385	1534203.0	1154328.0	635146.0	0.284493	0.597419
     29697.60	0.11830	1592250.0	1197791.0	658523.0	0.284669	0.598235
     29698.11	0.11169	1511529.0	1137192.0	625594.0	0.284560	0.597616
     29698.62	0.12226	1639230.0	1233498.0	678929.0	0.284373	0.597093
     29699.12	0.11286	1515952.0	1140443.0	627225.0	0.284627	0.597867
     29699.63	0.11157	1496301.0	1125919.0	619639.0	0.284396	0.597218
     29700.14	0.12276	1626970.0	1224074.0	673863.0	0.284535	0.596913
     29700.65	0.12763	1741855.0	1310499.0	721443.0	0.284543	0.596910
     29701.15	0.11804	1585227.0	1192608.0	656780.0	0.284585	0.596549
     29701.66	0.13027	1754253.0	1319778.0	726689.0	0.284580	0.596720
     29702.17	0.13018	1730557.0	1302046.0	717372.0	0.284506	0.596098
     29702.67	0.13386	1805853.0	1359238.0	748487.0	0.284109	0.596626
     29703.18	0.12136	1624879.0	1222550.0	673475.0	0.284495	0.596243
     29703.69	0.13701	1865093.0	1403420.0	773076.0	0.284399	0.596290
     29704.20	0.13010	1725474.0	1298903.0	715555.0	0.283982	0.596217
     29704.70	0.13402	1804693.0	1358305.0	748737.0	0.284153	0.595605
     29705.21	0.11977	1589638.0	1196624.0	659447.0	0.284002	0.595858
     29705.72	0.12505	1672960.0	1259313.0	694298.0	0.284028	0.595420
     29706.23	0.13224	1779825.0	1339427.0	738468.0	0.284273	0.595419
     29706.74	0.13473	1792026.0	1348972.0	744088.0	0.284004	0.594939
     29707.24	0.13031	1756655.0	1322257.0	729078.0	0.284071	0.595315
     29707.75	0.11967	1613656.0	1214667.0	670174.0	0.284032	0.594688
     29708.26	0.13455	1812086.0	1363975.0	752628.0	0.284075	0.594587
     29708.77	0.14396	1963272.0	1477552.0	815343.0	0.284226	0.594533
     29709.27	0.13242	1778092.0	1338581.0	738697.0	0.283931	0.594478
     29709.78	0.13112	1773436.0	1334906.0	736761.0	0.284058	0.594353
     29710.29	0.13555	1844149.0	1388352.0	766400.0	0.283900	0.594168
     29710.80	0.13799	1853527.0	1395550.0	770964.0	0.283802	0.593402
     29711.30	0.12676	1692354.0	1274301.0	703952.0	0.283723	0.593443
     29711.81	0.13332	1773298.0	1335186.0	737041.0	0.283770	0.594182
     29712.32	0.12021	1612880.0	1214652.0	670708.0	0.283564	0.593879
     29712.83	0.12671	1727643.0	1300718.0	718614.0	0.283842	0.593347
     29713.34	0.13285	1814390.0	1366368.0	755009.0	0.283593	0.593182
     29713.84	0.11944	1607366.0	1210637.0	668889.0	0.283450	0.593284
     29714.35	0.12238	1664045.0	1253156.0	692270.0	0.283586	0.593444
     29714.86	0.12878	1761154.0	1326369.0	733116.0	0.283524	0.592896
     29715.37	0.12746	1751252.0	1318840.0	728999.0	0.283578	0.592835
     29715.88	0.13294	1811662.0	1364466.0	754420.0	0.283482	0.592569
     29716.38	0.12182	1645256.0	1239225.0	685249.0	0.283410	0.592459
     29716.89	0.11497	1541647.0	1161463.0	642434.0	0.283171	0.592172
     29717.40	0.11901	1646818.0	1240294.0	685864.0	0.283496	0.592424
     29717.91	0.12028	1605265.0	1208971.0	668895.0	0.283519	0.591898
     29718.41	0.12775	1706383.0	1285241.0	710796.0	0.283430	0.592316
     29718.92	0.12854	1720274.0	1295762.0	716808.0	0.283385	0.592046
     29719.43	0.11783	1584406.0	1193214.0	660454.0	0.283559	0.591478
     29719.94	0.11693	1559142.0	1174222.0	649929.0	0.283530	0.591498
     29720.45	0.12234	1650966.0	1244156.0	688674.0	0.282903	0.591445
     29720.96	0.11930	1615287.0	1216762.0	673815.0	0.283319	0.590993
     29721.46	0.11773	1585096.0	1194133.0	661325.0	0.283225	0.590930
     29721.97	0.13561	1833968.0	1381577.0	765372.0	0.283256	0.590619
     29722.48	0.13743	1871554.0	1410306.0	781172.0	0.282962	0.590767
     29722.99	0.13269	1800995.0	1356880.0	751963.0	0.283151	0.590256
     29723.50	0.13180	1790523.0	1348981.0	747655.0	0.283158	0.590163
     29724.00	0.12969	1751735.0	1319684.0	731417.0	0.283214	0.590164
     29724.51	0.12408	1682327.0	1267930.0	702769.0	0.282792	0.590113
     29725.02	0.11064	1507217.0	1135640.0	629541.0	0.283069	0.589961
     29725.53	0.12793	1735969.0	1308085.0	725237.0	0.283002	0.589821
     29726.04	0.13031	1788247.0	1347864.0	747442.0	0.282715	0.589620
     29726.55	0.12136	1651991.0	1244771.0	690382.0	0.283030	0.589462
     29727.05	0.12209	1637597.0	1234341.0	684694.0	0.282693	0.589320
     29727.56	0.13129	1783742.0	1344767.0	746059.0	0.282493	0.589171
     29728.07	0.12550	1689060.0	1273065.0	706244.0	0.282745	0.589222
     29728.58	0.13019	1762589.0	1328494.0	737222.0	0.282738	0.588912
     29729.09	0.11806	1570592.0	1183927.0	657131.0	0.282616	0.588709
     29729.60	0.12373	1654945.0	1247509.0	692511.0	0.282619	0.588580
     29730.10	0.13682	1856342.0	1399048.0	776645.0	0.282816	0.588564
     29730.61	0.13397	1814824.0	1368128.0	759891.0	0.282545	0.588024
     29731.12	0.12988	1732503.0	1305609.0	724984.0	0.282898	0.588275
     29731.63	0.13225	1788881.0	1348385.0	749510.0	0.282683	0.587243
     29732.14	0.18850	2542974.0	1916693.0	1064471.0	0.282733	0.588123
     29732.65	0.13847	1896828.0	1430331.0	794467.0	0.282277	0.587990
     29733.15	0.063925	861465.0	649587.0	360834.0	0.282298	0.587919
     29733.66	0.10070	1352212.0	1019663.0	566635.0	0.282270	0.587512
     29734.17	0.12791	1696402.0	1279406.0	711013.0	0.282114	0.587460
     29734.68	0.12429	1676271.0	1263730.0	702113.0	0.282504	0.587729
     29735.19	0.12419	1665813.0	1256204.0	698603.0	0.282219	0.586767
     29735.70	0.13061	1734476.0	1307717.0	727117.0	0.282422	0.586951
     29736.21	0.17035	2275964.0	1716168.0	954493.0	0.282310	0.586669
     29736.71	0.13174	1761750.0	1328668.0	738813.0	0.282131	0.586887
     29737.22	0.071812	955507.0	720517.0	400760.0	0.282273	0.586606
     29737.73	0.095288	1265078.0	954176.0	530643.0	0.282041	0.586759
     29738.24	0.10890	1446402.0	1091262.0	607169.0	0.281744	0.586283
     29738.75	0.11480	1551060.0	1169624.0	650908.0	0.282256	0.586069
     29739.26	0.12697	1723436.0	1300150.0	723691.0	0.281840	0.585870
     29739.77	0.14469	1931112.0	1456692.0	810714.0	0.281928	0.586008
     29740.28	0.13412	1776131.0	1339825.0	745959.0	0.281898	0.585624
     29740.78	0.11027	1474666.0	1112304.0	619363.0	0.281998	0.585497
     29741.29	0.074705	998329.0	753048.0	419544.0	0.281954	0.584961
     29741.80	0.13853	1839011.0	1387433.0	772688.0	0.281773	0.585335
     29742.31	0.10931	1450288.0	1094189.0	609798.0	0.281749	0.584641
     29742.82	0.13941	1865458.0	1407848.0	784242.0	0.281444	0.585100
     29743.33	0.13672	1787066.0	1348497.0	751266.0	0.281585	0.584986
     29743.84	0.14284	1875400.0	1415620.0	788892.0	0.281254	0.584693
     29744.35	0.11350	1497358.0	1129776.0	629544.0	0.281683	0.584779
     29744.86	0.13153	1752995.0	1323227.0	737477.0	0.281252	0.584594
     29745.36	0.12759	1722636.0	1300204.0	724920.0	0.281335	0.584215
     29745.87	0.12518	1673635.0	1263395.0	704346.0	0.281195	0.584288
     29746.38	0.13493	1779106.0	1343205.0	748824.0	0.281052	0.584310
     29746.89	0.11302	1488446.0	1123827.0	626679.0	0.280993	0.584061
     29747.40	0.15573	2089624.0	1577574.0	879986.0	0.281096	0.583738
     29747.91	0.14759	1966578.0	1484793.0	827920.0	0.281020	0.584114
     29748.42	0.14249	1916929.0	1446968.0	807123.0	0.281254	0.583750
     29748.93	0.093986	1232790.0	930702.0	519145.0	0.281096	0.583756
     29749.44	0.13212	1754505.0	1324770.0	739188.0	0.280948	0.583442
     29749.95	0.13335	1785006.0	1347561.0	752395.0	0.281125	0.582790
     29750.45	0.13616	1830586.0	1381775.0	771484.0	0.281267	0.582808
     29750.96	0.13357	1737824.0	1312289.0	732514.0	0.280861	0.583046
     29751.47	0.13871	1843010.0	1391713.0	776964.0	0.280865	0.582897
     29751.98	0.15760	2067116.0	1561154.0	871574.0	0.280729	0.582880
     29752.49	0.14332	1871677.0	1413689.0	789438.0	0.280632	0.582637
     29753.00	0.083944	1113876.0	841394.0	469781.0	0.280541	0.582793
     29753.51	0.10522	1364932.0	1030989.0	575967.0	0.280586	0.582223
     29754.02	0.13164	1701404.0	1285387.0	718103.0	0.280394	0.582202
     29754.53	0.12454	1633240.0	1234021.0	689429.0	0.280288	0.582170
     29755.04	0.12549	1643702.0	1241414.0	693416.0	0.280700	0.582376
     29755.55	0.12395	1626335.0	1228535.0	686562.0	0.280507	0.581881
     29756.06	0.17634	2275321.0	1718927.0	960448.0	0.280421	0.582056
     29756.57	0.12081	1551823.0	1172477.0	655198.0	0.280312	0.581936
     29757.07	0.086255	1142475.0	862903.0	482480.0	0.280650	0.581363
     29757.58	0.11078	1441285.0	1088868.0	609131.0	0.280396	0.580861
     29758.09	0.13122	1691289.0	1277767.0	714506.0	0.280377	0.581278
     29758.60	0.11672	1519658.0	1148479.0	642258.0	0.280047	0.581204
     29759.11	0.12836	1640981.0	1240041.0	693613.0	0.280150	0.580986
     29759.62	0.11833	1546759.0	1168770.0	653538.0	0.280210	0.581307
     29760.13	0.11838	1531976.0	1157568.0	647771.0	0.280237	0.580539
     29760.64	0.11467	1468414.0	1109946.0	620715.0	0.279872	0.581195
     29761.15	0.12101	1586088.0	1198656.0	670620.0	0.280070	0.580754
     29761.66	0.13779	1784230.0	1348809.0	754996.0	0.279765	0.580265
     29762.17	0.12060	1562571.0	1180989.0	661098.0	0.279980	0.580205
     29762.68	0.13329	1683278.0	1272243.0	712112.0	0.279962	0.580302
     29763.19	0.13171	1709960.0	1292764.0	723518.0	0.279687	0.580412
     29763.70	0.12542	1609931.0	1216917.0	681045.0	0.279871	0.580448
     29764.21	0.12818	1621060.0	1225353.0	686206.0	0.279851	0.579806
     29764.72	0.12737	1626017.0	1229260.0	688191.0	0.279721	0.580101
     29765.23	0.12004	1521245.0	1150187.0	643979.0	0.279605	0.580014
     29765.74	0.12474	1581359.0	1195333.0	669543.0	0.279860	0.579585
     29766.25	0.12251	1523190.0	1151901.0	645247.0	0.279393	0.579536
     29766.76	0.11945	1518698.0	1148308.0	642871.0	0.279564	0.580101
     29767.26	0.12948	1647277.0	1245840.0	697847.0	0.279314	0.579565
     29767.77	0.12773	1625025.0	1228762.0	688339.0	0.279516	0.579481
     29768.28	0.13183	1654691.0	1251192.0	701028.0	0.279518	0.579304
     29768.79	0.12933	1651223.0	1248749.0	699416.0	0.279374	0.579652
     29769.30	0.12493	1597757.0	1208357.0	677368.0	0.279339	0.578802
     29769.81	0.13876	1722888.0	1303067.0	730453.0	0.279281	0.578811
     29770.32	0.12356	1554699.0	1175966.0	658954.0	0.279192	0.579191
     29770.83	0.12461	1594589.0	1206277.0	676037.0	0.279077	0.579046
     29771.34	0.12884	1645956.0	1245091.0	698072.0	0.279113	0.578642
     29771.85	0.13763	1785630.0	1350697.0	757154.0	0.279151	0.578809
     29772.36	0.12204	1559510.0	1179942.0	661374.0	0.278906	0.578901
     29772.87	0.12210	1560722.0	1180722.0	662351.0	0.279022	0.578086
     29773.38	0.13296	1684425.0	1274423.0	714693.0	0.278931	0.578396
     29773.89	0.12293	1572790.0	1189941.0	667206.0	0.278947	0.578560
     29774.40	0.12136	1576059.0	1192474.0	668910.0	0.278897	0.578136
     29774.91	0.11752	1491380.0	1128546.0	632873.0	0.278772	0.578416
     29775.42	0.14364	1814418.0	1373167.0	770125.0	0.278645	0.578322
     29775.93	0.10135	1249007.0	945030.0	530146.0	0.278887	0.578064
     29776.44	0.11233	1396666.0	1056765.0	592965.0	0.278876	0.577832
     29776.95	0.12820	1615462.0	1222536.0	685824.0	0.278694	0.578062
     29777.46	0.10686	1358570.0	1027739.0	576765.0	0.279071	0.577682
     29777.97	0.11620	1477797.0	1118331.0	627575.0	0.278715	0.577729
     29778.48	0.11830	1505727.0	1139625.0	639372.0	0.278577	0.577968
     29778.99	0.11633	1459708.0	1105003.0	619869.0	0.278388	0.578095
     29779.50	0.14304	1791120.0	1355871.0	761070.0	0.278397	0.577474
     29780.01	0.11623	1478718.0	1118927.0	627973.0	0.278805	0.577628
     29780.52	0.098500	1231287.0	931803.0	523150.0	0.278694	0.577253
     29781.03	0.10886	1380532.0	1044851.0	586536.0	0.278595	0.577396
     29781.54	0.13902	1751741.0	1326402.0	744852.0	0.278140	0.577040
     29782.05	0.12421	1555198.0	1177136.0	661008.0	0.278518	0.577074
     29782.56	0.13260	1650815.0	1249722.0	701812.0	0.278348	0.577011
     29783.07	0.13511	1736633.0	1314799.0	738688.0	0.278264	0.576563
     29783.58	0.14229	1793789.0	1358288.0	763102.0	0.278105	0.576589
     29784.09	0.10622	1350070.0	1021981.0	574065.0	0.278414	0.576756
     29784.60	0.14125	1798306.0	1361662.0	765054.0	0.278139	0.576515
     29785.12	0.12710	1591559.0	1205106.0	677087.0	0.278147	0.576523
     29785.63	0.12881	1620444.0	1226978.0	689479.0	0.278146	0.576373
     29786.14	0.12216	1541177.0	1167012.0	655792.0	0.278100	0.576358
     29786.65	0.12517	1620632.0	1227751.0	689956.0	0.277632	0.576311
     29787.16	0.13977	1747142.0	1323160.0	743717.0	0.277958	0.576118
     29787.67	0.12510	1551477.0	1175257.0	660614.0	0.277721	0.576072
     29788.18	0.12923	1614460.0	1223026.0	687449.0	0.277672	0.576096
     29788.69	0.13907	1710661.0	1295585.0	728171.0	0.277918	0.576182
     29789.20	0.13454	1674468.0	1268240.0	712821.0	0.277865	0.576155
     29789.71	0.13262	1646849.0	1247456.0	701283.0	0.277757	0.575950
     29790.22	0.13795	1731632.0	1311599.0	737568.0	0.277817	0.575644
     29790.73	0.13727	1720387.0	1303149.0	732715.0	0.277766	0.575782
     29791.24	0.12342	1568692.0	1188259.0	668041.0	0.277753	0.575895
     29791.75	0.12703	1567220.0	1187074.0	667893.0	0.277812	0.575119
     29792.26	0.13179	1639484.0	1241863.0	698571.0	0.277769	0.575331
     29792.77	0.11970	1511685.0	1145186.0	644246.0	0.277658	0.575242
     29793.28	0.12503	1552627.0	1176119.0	661806.0	0.277728	0.575003
     29793.79	0.13227	1641097.0	1243012.0	699067.0	0.277827	0.575546
     29794.30	0.12272	1560468.0	1182229.0	665091.0	0.277584	0.575233
     29794.81	0.12809	1611672.0	1221243.0	687205.0	0.277403	0.574992
     29795.32	0.12675	1620052.0	1227474.0	690940.0	0.277500	0.574661
     29795.84	0.11947	1510150.0	1144753.0	644329.0	0.277020	0.574735
     29796.35	0.12672	1586433.0	1202096.0	676857.0	0.277421	0.574362
     29796.86	0.12378	1559365.0	1181820.0	665473.0	0.277223	0.574313
     29797.37	0.11827	1473307.0	1116162.0	628383.0	0.277614	0.574501
     29797.88	0.13015	1654317.0	1253471.0	706088.0	0.277472	0.573932
     29798.39	0.11926	1496951.0	1134923.0	639006.0	0.276866	0.574406
     29798.90	0.11629	1514279.0	1148150.0	646434.0	0.276787	0.574436
     29799.41	0.12431	1607090.0	1218410.0	686476.0	0.276878	0.573731
     29799.92	0.11746	1442144.0	1092914.0	615786.0	0.277283	0.573703
     29800.43	0.12512	1570356.0	1190202.0	670589.0	0.277179	0.573722
     29800.94	0.12764	1606908.0	1217680.0	686095.0	0.277364	0.573687
     29801.45	0.12308	1550232.0	1175168.0	662378.0	0.276993	0.573330
     29801.97	0.12847	1614494.0	1223900.0	689967.0	0.276979	0.573154
     29802.48	0.12457	1560348.0	1182840.0	666414.0	0.276991	0.573763
     29802.99	0.13267	1719263.0	1303074.0	734459.0	0.277170	0.573347
     29803.50	0.13133	1708898.0	1295446.0	730618.0	0.276994	0.572720
     29804.01	0.11771	1474861.0	1118005.0	630247.0	0.277018	0.573189
     29804.52	0.12902	1640850.0	1244215.0	701389.0	0.276710	0.573197
     29805.03	0.13120	1650747.0	1251711.0	705628.0	0.276716	0.573179
     29805.54	0.12179	1549368.0	1174949.0	662661.0	0.276622	0.572716
     29806.05	0.12306	1548926.0	1174243.0	662207.0	0.276938	0.572801
     29806.56	0.13077	1656091.0	1255608.0	708217.0	0.276840	0.572625
     29807.07	0.12002	1490607.0	1130391.0	637715.0	0.276620	0.572427
     29807.59	0.20400	2545503.0	1930172.0	1089380.0	0.276719	0.572000
     29808.10	0.10313	1317936.0	999791.0	564008.0	0.276276	0.572478
     29808.61	0.11894	1507272.0	1143376.0	645673.0	0.276316	0.571447
     29809.12	0.076943	963459.0	730680.0	412265.0	0.276554	0.572309
     29809.63	0.12959	1626200.0	1233149.0	696189.0	0.276675	0.571705
     29810.14	0.15700	1987590.0	1507707.0	850927.0	0.276333	0.572019
     29810.65	0.15064	1867787.0	1416615.0	800036.0	0.276484	0.571369
     29811.16	0.087061	1106857.0	839399.0	474203.0	0.276594	0.571051
     29811.68	0.12762	1585050.0	1202337.0	678980.0	0.276349	0.571431
     29812.19	0.11923	1480383.0	1123204.0	634367.0	0.276116	0.571313
     29812.70	0.12503	1573533.0	1193677.0	674322.0	0.276285	0.571086
     29813.21	0.12387	1533569.0	1163537.0	657199.0	0.276133	0.571233
     29813.72	0.11919	1472988.0	1117075.0	631108.0	0.276579	0.570992
     29814.23	0.13351	1684180.0	1278030.0	722218.0	0.275959	0.570748
     29814.74	0.14625	1793069.0	1360498.0	768667.0	0.276078	0.570948
     29815.25	0.12158	1503484.0	1141155.0	644615.0	0.275744	0.571143
     29815.77	0.12004	1484509.0	1126337.0	636794.0	0.276113	0.570280
     29816.28	0.095974	1191962.0	904700.0	511178.0	0.275753	0.570886
     29816.79	0.12335	1510247.0	1146253.0	648080.0	0.275775	0.570239
     29817.30	0.10512	1263438.0	958819.0	542340.0	0.275890	0.569809
     29817.81	0.12785	1583303.0	1201613.0	679463.0	0.275848	0.570117
     29818.32	0.10908	1367802.0	1037939.0	586927.0	0.275968	0.570092
     29818.83	0.13130	1626387.0	1234306.0	698067.0	0.275852	0.569949
     29819.35	0.12316	1542743.0	1170829.0	662219.0	0.275850	0.569871
     29819.86	0.11441	1449022.0	1099718.0	622608.0	0.275835	0.568892
     29820.37	0.11708	1433714.0	1088253.0	615784.0	0.275695	0.569433
     29820.88	0.098174	1202862.0	913325.0	516555.0	0.275367	0.569910
     29821.39	0.13176	1665453.0	1264267.0	715488.0	0.275605	0.569283
     29821.90	0.13987	1736661.0	1318576.0	746239.0	0.275412	0.569262
     29822.42	0.14093	1796544.0	1363753.0	771943.0	0.275624	0.569085
     29822.93	0.12318	1527286.0	1159562.0	656559.0	0.275450	0.568785
     29823.44	0.16885	2078271.0	1578077.0	893695.0	0.275329	0.568598
     29823.95	0.099412	1235670.0	937944.0	531380.0	0.275678	0.568213
     29824.46	0.11556	1460456.0	1109286.0	628102.0	0.275032	0.568769
     29824.97	0.11994	1507515.0	1144291.0	648202.0	0.275677	0.568338
     29825.49	0.13587	1705411.0	1295042.0	733614.0	0.275263	0.568315
     29826.00	0.12214	1527589.0	1160237.0	657315.0	0.275066	0.568216
     29826.51	0.13642	1713634.0	1301028.0	737087.0	0.275462	0.568204
     29827.02	0.13263	1675526.0	1272514.0	720980.0	0.275133	0.568138
     29827.53	0.13498	1698766.0	1290239.0	731137.0	0.275075	0.567982
     29828.04	0.11967	1515676.0	1151317.0	652821.0	0.274955	0.567359
     29828.56	0.13545	1711070.0	1299959.0	736828.0	0.274786	0.567734
     29829.07	0.13087	1660617.0	1261396.0	715092.0	0.274970	0.567563
     29829.58	0.13292	1693998.0	1286353.0	729452.0	0.275280	0.567273
     29830.09	0.13003	1636061.0	1242499.0	704748.0	0.275167	0.567040
     29830.60	0.13110	1662247.0	1262420.0	715880.0	0.275140	0.567273
     29831.11	0.15523	1980535.0	1504544.0	853168.0	0.274877	0.567289
     29831.63	0.12351	1569642.0	1192378.0	676331.0	0.274898	0.567022
     29832.14	0.12908	1649141.0	1252925.0	710811.0	0.274774	0.566830
     29832.65	0.12449	1564808.0	1188822.0	674544.0	0.274800	0.566681
     29833.16	0.12206	1528372.0	1160999.0	658776.0	0.274922	0.566653
     29833.67	0.13157	1658980.0	1260372.0	715156.0	0.274796	0.566661
     29834.19	0.12217	1535355.0	1166440.0	662016.0	0.274805	0.566422
     29834.70	0.12486	1546735.0	1175532.0	667158.0	0.274425	0.566449
     29835.21	0.12511	1563867.0	1188423.0	674771.0	0.274534	0.566009
     29835.72	0.13050	1634964.0	1242166.0	705586.0	0.274764	0.565583
     29836.23	0.12735	1612142.0	1225287.0	695748.0	0.274389	0.565943
     29836.75	0.11234	1387376.0	1054273.0	599120.0	0.274563	0.565145
     29837.26	0.12417	1549820.0	1177619.0	668938.0	0.274644	0.565559
     29837.77	0.12273	1541603.0	1171742.0	665606.0	0.274331	0.565549
     29838.28	0.12434	1530674.0	1163253.0	661037.0	0.274488	0.565166
     29838.80	0.12496	1567717.0	1191660.0	677036.0	0.274273	0.565378
     29839.31	0.11673	1419658.0	1079098.0	613578.0	0.274290	0.564573
     29839.82	0.12015	1473108.0	1119739.0	636308.0	0.274279	0.565168
     29840.33	0.12394	1528080.0	1161502.0	660438.0	0.274298	0.564566
     29840.84	0.12252	1501277.0	1141334.0	648741.0	0.274118	0.564919
     29841.36	0.11931	1475295.0	1121438.0	637768.0	0.274246	0.564392
     29841.87	0.12076	1472406.0	1119491.0	636580.0	0.274024	0.564519
     29842.38	0.13074	1641660.0	1248005.0	709640.0	0.274162	0.564544
     29842.89	0.12495	1562770.0	1188490.0	676067.0	0.273776	0.564147
     29843.41	0.14065	1753825.0	1333158.0	758463.0	0.274249	0.564012
     29843.92	0.12256	1565263.0	1190307.0	677274.0	0.273843	0.563891
     29844.43	0.13025	1629248.0	1238696.0	704852.0	0.274059	0.563827
     29844.94	0.12822	1597131.0	1214557.0	691223.0	0.273829	0.563672
     29845.46	0.12420	1574300.0	1197288.0	681191.0	0.273752	0.563972
     29845.97	0.12502	1548376.0	1177481.0	670291.0	0.273829	0.563421
     29846.48	0.12838	1609009.0	1223870.0	696795.0	0.273600	0.563282
     29846.99	0.11901	1500855.0	1141572.0	650177.0	0.273629	0.562917
     29847.50	0.12809	1612313.0	1226331.0	698179.0	0.273643	0.563307
     29848.02	0.13054	1663406.0	1265173.0	720848.0	0.273658	0.562536
     29848.53	0.11518	1438259.0	1093690.0	622974.0	0.273876	0.562808
     29849.04	0.12510	1559581.0	1186649.0	675849.0	0.273284	0.562919
     29849.56	0.13582	1702469.0	1295089.0	738158.0	0.273500	0.562177
     29850.07	0.12316	1547222.0	1177118.0	670865.0	0.273392	0.562256
     29850.58	0.13215	1668930.0	1269684.0	723632.0	0.273415	0.562240
     29851.09	0.13241	1665774.0	1267397.0	722592.0	0.273325	0.561876
     29851.61	0.12971	1580206.0	1202116.0	685332.0	0.273472	0.561935
     29852.12	0.12826	1573452.0	1196768.0	682522.0	0.273647	0.561585
     29852.63	0.12798	1568927.0	1193398.0	680801.0	0.273587	0.561290
     29853.14	0.12370	1508355.0	1147902.0	654604.0	0.273084	0.561661
     29853.66	0.13427	1718467.0	1307689.0	745457.0	0.273171	0.562019
     29854.17	0.12382	1536250.0	1168973.0	666699.0	0.273219	0.561542
     29854.68	0.12257	1544861.0	1175472.0	670908.0	0.273264	0.560793
     29855.19	0.12757	1595445.0	1214198.0	692615.0	0.273069	0.561365
     29855.71	0.12836	1564812.0	1190357.0	679524.0	0.273512	0.560616
     29856.22	0.10929	1379693.0	1049940.0	599168.0	0.273128	0.560946
     29856.73	0.11880	1490819.0	1134299.0	647461.0	0.273311	0.560712
     29857.25	0.11857	1495676.0	1138298.0	650051.0	0.273044	0.560239
     29857.76	0.12484	1524514.0	1160088.0	662431.0	0.273180	0.560335
     29858.27	0.12153	1514066.0	1152159.0	657655.0	0.273161	0.560712
     29858.78	0.10342	1265143.0	962691.0	550129.0	0.273208	0.559580
     29859.30	0.11844	1463854.0	1114212.0	636372.0	0.272925	0.560119
     29859.81	0.14324	1797437.0	1367974.0	781413.0	0.273031	0.559982
     29860.32	0.095732	1200414.0	913397.0	521955.0	0.273251	0.559589
     29860.84	0.11508	1419597.0	1080898.0	617483.0	0.272581	0.559896
     29861.35	0.12476	1544846.0	1176515.0	672179.0	0.272368	0.559787
     29861.86	0.11081	1370016.0	1043120.0	596150.0	0.272606	0.559479
     29862.37	0.13856	1754943.0	1336125.0	763394.0	0.272663	0.559755
     29862.89	0.12016	1502954.0	1144268.0	653960.0	0.272667	0.559474
     29863.40	0.13155	1642877.0	1250786.0	714849.0	0.272677	0.559456
     29863.91	0.12443	1566014.0	1192352.0	681705.0	0.272606	0.559086
     29864.43	0.13179	1651918.0	1257931.0	719474.0	0.272469	0.558703
     29864.94	0.13168	1674495.0	1274945.0	728821.0	0.272609	0.559230
     29865.45	0.12145	1497630.0	1140816.0	652221.0	0.272140	0.559116
     29865.97	0.13729	1710876.0	1303072.0	744858.0	0.272281	0.559286
     29866.48	0.12562	1554671.0	1183655.0	677041.0	0.272657	0.558631
     29866.99	0.13194	1604672.0	1221884.0	699098.0	0.272525	0.558358
     29867.50	0.12992	1601737.0	1219712.0	697696.0	0.272474	0.558587
     29868.02	0.12489	1516104.0	1154448.0	660764.0	0.272522	0.557981
     29868.53	0.13172	1616776.0	1231513.0	704236.0	0.272191	0.558885
     29869.04	0.13280	1642522.0	1251244.0	716237.0	0.272095	0.557882
     29869.56	0.13506	1686003.0	1284302.0	734950.0	0.272145	0.558168
     29870.07	0.13005	1578836.0	1202721.0	688683.0	0.272101	0.557561
     29870.58	0.12944	1577340.0	1201642.0	687822.0	0.272051	0.557914
     29871.10	0.14034	1692435.0	1289397.0	738421.0	0.271994	0.557416
     29871.61	0.12870	1597599.0	1217173.0	697073.0	0.271971	0.557396
     29872.12	0.14083	1753513.0	1335989.0	764980.0	0.271949	0.557577
     29872.64	0.12896	1552368.0	1182737.0	677744.0	0.271950	0.556817
     29873.15	0.12694	1566002.0	1193230.0	683562.0	0.271862	0.557102
     29873.66	0.12955	1618641.0	1233532.0	706389.0	0.271705	0.557471
     29874.18	0.12265	1483413.0	1130423.0	647772.0	0.271754	0.556808
     29874.69	0.13156	1597810.0	1217343.0	697582.0	0.271963	0.556806
     29875.20	0.12855	1569061.0	1195871.0	684966.0	0.271603	0.557261
     29875.72	0.12465	1518941.0	1157399.0	663315.0	0.271838	0.556681
     29876.23	0.12182	1462591.0	1114236.0	638756.0	0.272041	0.556402
     29876.74	0.13589	1656525.0	1262619.0	723549.0	0.271534	0.556775
     29877.26	0.12148	1515963.0	1155485.0	662485.0	0.271531	0.556278
     29877.77	0.11630	1436927.0	1095400.0	628038.0	0.271387	0.556274
     29878.29	0.12952	1600055.0	1219399.0	699327.0	0.271680	0.555995
     29878.80	0.12353	1516337.0	1155988.0	662879.0	0.271342	0.556118
     29879.31	0.12601	1579661.0	1203982.0	690500.0	0.271576	0.555974
     29879.83	0.11975	1492852.0	1138056.0	652674.0	0.271367	0.555999
     29880.34	0.12122	1497665.0	1141513.0	655018.0	0.271553	0.555447
     29880.85	0.12561	1564475.0	1192837.0	684243.0	0.271216	0.555777
     29881.37	0.11717	1447128.0	1103338.0	632998.0	0.271241	0.555628
     29881.88	0.11771	1458292.0	1111676.0	638156.0	0.271397	0.555041
     29882.39	0.12440	1547319.0	1179665.0	677009.0	0.271293	0.555301
     29882.91	0.11541	1451891.0	1107089.0	635251.0	0.271133	0.555469
     29883.42	0.12569	1539199.0	1173694.0	673869.0	0.271106	0.554876
     29883.94	0.13270	1642131.0	1252306.0	718957.0	0.271008	0.554940
     29884.45	0.14150	1773263.0	1352349.0	776341.0	0.270978	0.555007
     29884.96	0.11366	1410837.0	1076056.0	617615.0	0.270881	0.555192
     29885.48	0.13672	1691084.0	1289824.0	740790.0	0.270864	0.554544
     29885.99	0.12520	1569225.0	1196786.0	687462.0	0.270942	0.554388
     29886.50	0.12673	1565151.0	1193633.0	685429.0	0.270981	0.554712
     29887.02	0.12332	1523024.0	1161465.0	667174.0	0.271016	0.554387
     29887.53	0.11741	1461386.0	1114265.0	640160.0	0.271190	0.554232
     29888.05	0.12734	1583278.0	1207689.0	693686.0	0.270789	0.554444
     29888.56	0.12927	1613675.0	1230885.0	707233.0	0.270781	0.554129
     29889.07	0.12604	1556537.0	1187127.0	682280.0	0.270927	0.553851
     29889.59	0.12264	1522247.0	1161081.0	667245.0	0.270836	0.553949
     29890.10	0.12473	1549743.0	1182038.0	679255.0	0.270849	0.553999
     29890.62	0.13218	1594464.0	1216144.0	698928.0	0.270852	0.553893
     29891.13	0.12510	1542312.0	1176672.0	676626.0	0.270592	0.553327
     29891.64	0.13685	1673524.0	1276820.0	734043.0	0.270559	0.553560
     29892.16	0.12696	1581480.0	1206748.0	693732.0	0.270432	0.553599
     29892.67	0.13273	1627544.0	1241629.0	714210.0	0.270648	0.553002
     29893.19	0.14679	1798182.0	1372424.0	789052.0	0.270198	0.553502
     29893.70	0.10941	1315295.0	1003640.0	577177.0	0.270428	0.553240
     29894.21	0.13144	1622686.0	1238603.0	712351.0	0.270099	0.553169
     29894.73	0.12763	1565752.0	1194973.0	687381.0	0.270243	0.552990
     29895.24	0.11672	1438213.0	1097569.0	631416.0	0.270304	0.552888
     29895.76	0.11967	1481915.0	1131328.0	650881.0	0.269943	0.552821
     29896.27	0.13003	1610798.0	1229311.0	707352.0	0.270276	0.552681
     29896.78	0.12464	1569814.0	1198364.0	689486.0	0.270000	0.552766
     29897.30	0.15236	1906023.0	1454870.0	837345.0	0.270102	0.552436
     29897.81	0.11239	1395024.0	1064527.0	612779.0	0.270381	0.552281
     29898.33	0.10820	1365728.0	1042343.0	600229.0	0.270217	0.551915
     29898.84	0.11604	1445491.0	1103249.0	635594.0	0.270190	0.551455
     29899.36	0.12114	1526908.0	1165669.0	671289.0	0.269950	0.551851
     29899.87	0.11785	1511871.0	1154064.0	664537.0	0.270058	0.551954
     29900.38	0.11751	1502362.0	1146838.0	660276.0	0.270030	0.552106
     29900.90	0.11370	1425766.0	1088412.0	627149.0	0.269989	0.551291
     29901.41	0.13808	1729403.0	1320176.0	760461.0	0.270011	0.551596
     29901.93	0.13256	1653709.0	1262674.0	727534.0	0.269789	0.551326
     29902.44	0.083518	1054887.0	805602.0	464128.0	0.269599	0.551429
     29902.96	0.11324	1440298.0	1099833.0	633397.0	0.269692	0.551816
     29903.47	0.12878	1616089.0	1234101.0	710733.0	0.269666	0.551801
     29903.98	0.12055	1525046.0	1164351.0	671087.0	0.269861	0.551020
     29904.50	0.12515	1585051.0	1210143.0	697548.0	0.269878	0.550922
     29905.01	0.12315	1547617.0	1181929.0	681215.0	0.269568	0.551025
     29905.53	0.12843	1617460.0	1234783.0	712144.0	0.269962	0.550370
     29906.04	0.15179	1901821.0	1452651.0	837444.0	0.269422	0.550791
     29906.56	0.11387	1467660.0	1121051.0	646342.0	0.269403	0.550693
     29907.07	0.13475	1705925.0	1303141.0	751217.0	0.269330	0.550838
     29907.59	0.12735	1610906.0	1230814.0	709758.0	0.269121	0.550507
     29908.10	0.12423	1566278.0	1196331.0	689994.0	0.269443	0.550332
     29908.62	0.12680	1612868.0	1231842.0	710551.0	0.269503	0.550225
     29909.13	0.13037	1642882.0	1254907.0	723599.0	0.269391	0.550579
     29909.64	0.19080	2453275.0	1874129.0	1081376.0	0.269280	0.549910
     29910.16	0.099023	1243642.0	949791.0	548048.0	0.269557	0.549879
     29910.67	0.096680	1227177.0	937531.0	540759.0	0.269222	0.550276
     29911.19	0.12657	1615149.0	1234489.0	712422.0	0.268770	0.549742
     29911.70	0.14627	1855036.0	1417192.0	818073.0	0.269227	0.549481
     29912.22	0.13428	1722607.0	1316089.0	759559.0	0.269174	0.549682
     29912.73	0.14478	1853527.0	1416328.0	817464.0	0.269023	0.549616
     29913.25	0.13199	1670822.0	1276714.0	736938.0	0.269026	0.549541
     29913.76	0.12719	1610522.0	1230627.0	710056.0	0.269035	0.549935
     29914.28	0.13588	1724537.0	1317772.0	760875.0	0.269016	0.549229
     29914.79	0.11775	1460980.0	1116595.0	644514.0	0.268824	0.549543
     29915.31	0.13389	1691115.0	1292518.0	746528.0	0.268796	0.548914
     29915.82	0.12588	1598231.0	1220887.0	705116.0	0.269320	0.548971
     29916.34	0.12395	1607906.0	1228767.0	709816.0	0.268921	0.548761
     29916.85	0.12028	1510295.0	1154241.0	666816.0	0.268862	0.548684
     29917.37	0.12367	1568196.0	1198741.0	692601.0	0.268654	0.548573
     29917.88	0.12661	1593890.0	1218413.0	704129.0	0.268628	0.548343
     29918.40	0.13231	1662089.0	1270758.0	734539.0	0.268462	0.548126
     29918.91	0.12012	1483934.0	1134375.0	655336.0	0.268615	0.548689
     29919.43	0.12909	1596689.0	1220775.0	705617.0	0.268446	0.548169
     29919.94	0.12054	1504187.0	1149880.0	664581.0	0.268595	0.548256
     29920.46	0.12144	1499843.0	1146662.0	662865.0	0.268505	0.548039
     29920.97	0.12756	1620173.0	1238597.0	716075.0	0.268554	0.547950
     29921.49	0.12684	1567157.0	1198191.0	692434.0	0.268450	0.548355
     29922.00	0.11880	1490341.0	1139665.0	659053.0	0.268271	0.547686
     29922.52	0.11247	1405681.0	1074716.0	621496.0	0.268465	0.547682
     29923.03	0.12170	1500761.0	1147655.0	664119.0	0.268252	0.547015
     29923.55	0.12243	1524430.0	1165477.0	674245.0	0.268490	0.547292
     29924.06	0.12122	1484158.0	1135147.0	656611.0	0.268085	0.547426
     29924.58	0.12942	1553065.0	1187507.0	687144.0	0.268374	0.547068
     29925.09	0.12855	1565947.0	1197556.0	693282.0	0.268208	0.546601
     29925.61	0.12748	1571755.0	1202010.0	695317.0	0.268198	0.547383
     29926.12	0.13157	1586271.0	1213267.0	702299.0	0.268069	0.546713
     29926.64	0.11949	1453394.0	1111621.0	643487.0	0.268082	0.546673
     29927.15	0.12775	1550199.0	1185515.0	686187.0	0.268206	0.546782
     29927.67	0.12909	1562454.0	1195273.0	691980.0	0.267883	0.546573
     29928.18	0.13348	1640359.0	1254611.0	726469.0	0.268090	0.546385
     29928.70	0.12144	1485314.0	1136250.0	658091.0	0.267893	0.546145
     29929.21	0.12295	1472683.0	1126456.0	652417.0	0.268009	0.546148
     29929.73	0.12537	1520783.0	1163566.0	674212.0	0.267736	0.545700
     29930.24	0.12582	1520667.0	1163561.0	673938.0	0.267664	0.546102
     29930.76	0.11536	1402195.0	1073048.0	621479.0	0.267536	0.546156
     29931.27	0.12853	1558863.0	1192750.0	691202.0	0.267695	0.545585
     29931.79	0.13099	1588518.0	1215235.0	704255.0	0.267864	0.545552
     29932.31	0.12253	1485073.0	1136476.0	658358.0	0.267532	0.545939
     29932.82	0.12200	1480189.0	1132621.0	656441.0	0.267635	0.545457
     29933.34	0.13546	1630456.0	1247630.0	722892.0	0.267614	0.545741
     29933.85	0.12924	1570478.0	1201966.0	696763.0	0.267421	0.545269
     29934.37	0.12371	1523444.0	1165577.0	675483.0	0.267757	0.545544
     29934.88	0.13136	1562037.0	1195061.0	693045.0	0.267794	0.544858
     29935.40	0.12556	1519672.0	1163109.0	674341.0	0.267398	0.545116
     29935.91	0.12876	1560935.0	1194686.0	693143.0	0.267402	0.544402
     29936.43	0.12933	1589121.0	1216263.0	705640.0	0.267398	0.544433
     29936.94	0.12213	1443419.0	1104698.0	640948.0	0.267443	0.544379
     29937.46	0.12813	1507582.0	1153773.0	669456.0	0.267470	0.544327
     29937.98	0.12865	1538114.0	1177536.0	683081.0	0.267133	0.544566
     29938.49	0.12084	1484343.0	1136111.0	658959.0	0.267361	0.544705
     29939.01	0.11878	1444654.0	1105818.0	641772.0	0.267285	0.544108
     29939.52	0.12758	1534103.0	1174551.0	681454.0	0.267060	0.544412
     29940.04	0.11743	1421495.0	1087873.0	631454.0	0.267485	0.543955
     29940.55	0.12468	1501134.0	1149208.0	666787.0	0.267148	0.544358
     29941.07	0.12269	1444629.0	1106001.0	642099.0	0.267102	0.543764
     29941.59	0.10985	1291716.0	989141.0	574694.0	0.266890	0.542999
     29942.10	0.12693	1525241.0	1167944.0	678331.0	0.266907	0.543365
     29942.62	0.11431	1354123.0	1036854.0	601982.0	0.266963	0.543719
     29943.13	0.10969	1308476.0	1001777.0	581757.0	0.267088	0.543478
     29943.65	0.12350	1504289.0	1151879.0	668939.0	0.266926	0.543457
     29944.16	0.10732	1285870.0	984589.0	572135.0	0.266967	0.542849
     29944.68	0.11743	1449005.0	1109584.0	644802.0	0.266892	0.542797
     29945.20	0.12287	1506894.0	1154105.0	670474.0	0.266725	0.543096
     29945.71	0.12149	1502058.0	1150433.0	668561.0	0.266698	0.542766
     29946.23	0.12966	1574535.0	1206035.0	700624.0	0.266622	0.543122
     29946.74	0.12750	1560649.0	1195484.0	694628.0	0.266551	0.542930
     29947.26	0.12421	1518165.0	1162448.0	675824.0	0.266974	0.542351
     29947.78	0.12146	1471957.0	1127748.0	655690.0	0.266370	0.542290
     29948.29	0.14404	1735610.0	1329567.0	773095.0	0.266506	0.542207
     29948.81	0.12355	1500698.0	1149600.0	668532.0	0.266516	0.542085
     29949.32	0.13352	1621822.0	1242297.0	722186.0	0.266588	0.542435
     29949.84	0.12773	1549256.0	1187035.0	690173.0	0.266316	0.542272
     29950.36	0.13332	1629418.0	1248649.0	726256.0	0.266161	0.541915
     29950.87	0.13816	1680126.0	1287544.0	748426.0	0.266132	0.542519
     29951.39	0.12091	1470503.0	1126576.0	655427.0	0.266422	0.541651
     29951.90	0.11812	1443703.0	1106154.0	643541.0	0.266322	0.541659
     29952.42	0.13796	1633590.0	1251724.0	728429.0	0.266258	0.541387
     29952.94	0.13659	1653245.0	1266689.0	737200.0	0.266334	0.541302
     29953.45	0.12964	1558877.0	1194257.0	694883.0	0.266441	0.541536
     29953.97	0.13513	1668660.0	1278684.0	744262.0	0.266189	0.541194
     29954.48	0.13855	1703323.0	1305545.0	759783.0	0.265960	0.541343
     29955.00	0.13401	1628335.0	1248152.0	726628.0	0.265894	0.541005
     29955.52	0.12733	1542201.0	1182040.0	688410.0	0.265969	0.540612
     29956.03	0.12719	1558305.0	1194341.0	695568.0	0.266004	0.540621
     29956.55	0.12738	1543705.0	1183081.0	689164.0	0.266063	0.540398
     29957.07	0.13222	1623107.0	1244052.0	724212.0	0.265968	0.541045
     29957.58	0.12858	1532427.0	1174552.0	684186.0	0.265966	0.540412
     29958.10	0.13327	1628934.0	1248797.0	727422.0	0.265745	0.540429
     29958.61	0.12559	1523086.0	1167437.0	680219.0	0.265928	0.540151
     29959.13	0.12121	1466673.0	1124275.0	654854.0	0.265858	0.540481
     29959.65	0.12307	1523760.0	1168300.0	680872.0	0.265631	0.539931
     29960.16	0.12017	1501346.0	1150961.0	670780.0	0.265765	0.539911
     29960.68	0.12963	1582131.0	1213111.0	707104.0	0.265585	0.539766
     29961.20	0.13713	1697528.0	1301671.0	758350.0	0.265524	0.540259
     29961.71	0.11802	1451357.0	1113019.0	648725.0	0.265423	0.539823
     29962.23	0.11289	1364736.0	1046784.0	610436.0	0.265238	0.539304
     29962.75	0.13847	1675203.0	1284765.0	749342.0	0.265359	0.539136
     29963.26	0.11370	1374370.0	1054209.0	614433.0	0.265205	0.539846
     29963.78	0.12269	1491831.0	1144155.0	666956.0	0.265338	0.539698
     29964.30	0.11993	1463509.0	1122451.0	654859.0	0.265322	0.538850
     29964.81	0.11852	1443837.0	1107321.0	645666.0	0.265361	0.539417
     29965.33	0.12110	1467182.0	1125082.0	656223.0	0.265488	0.539111
     29965.84	0.11226	1356068.0	1039878.0	606697.0	0.265486	0.538829
     29966.36	0.12174	1473773.0	1130450.0	659756.0	0.265210	0.538501
     29966.88	0.13052	1578134.0	1210623.0	706388.0	0.265108	0.538726
     29967.39	0.13456	1646962.0	1263588.0	737376.0	0.264977	0.538613
     29967.91	0.14124	1727393.0	1325053.0	773456.0	0.265161	0.538339
     29968.43	0.10921	1329613.0	1020086.0	595435.0	0.265001	0.538350
     29968.94	0.13873	1715869.0	1316434.0	768429.0	0.264993	0.538334
     29969.46	0.12011	1445944.0	1109587.0	647807.0	0.264775	0.538150
     29969.98	0.13664	1640910.0	1259100.0	735302.0	0.264854	0.537871
     29970.49	0.11616	1432860.0	1099363.0	641831.0	0.264942	0.538161
     29971.01	0.12121	1486202.0	1140328.0	665686.0	0.264908	0.538253
     29971.53	0.13518	1627235.0	1248573.0	729148.0	0.264881	0.537880
     29972.04	0.14352	1783150.0	1368503.0	799140.0	0.264664	0.537937
     29972.56	0.097271	1183917.0	908658.0	530780.0	0.264615	0.537621
     29973.08	0.12846	1554253.0	1192697.0	696612.0	0.264778	0.537744
     29973.60	0.12175	1476453.0	1133109.0	661815.0	0.264677	0.537734
     29974.11	0.13309	1610115.0	1235674.0	721879.0	0.264689	0.537514
     29974.63	0.11995	1469197.0	1127489.0	658858.0	0.264723	0.537240
     29975.15	0.13631	1620706.0	1243988.0	727125.0	0.264540	0.536979
     29975.66	0.13417	1600377.0	1228112.0	718065.0	0.264761	0.536673
     29976.18	0.15937	1916137.0	1471221.0	859945.0	0.264219	0.536980
     29976.70	0.099572	1212430.0	930788.0	543953.0	0.264350	0.537169
     29977.21	0.12094	1445381.0	1109782.0	648716.0	0.264209	0.536924
     29977.73	0.12584	1538246.0	1180633.0	689994.0	0.264592	0.537123
     29978.25	0.12228	1460745.0	1121888.0	656151.0	0.263934	0.536377
     29978.76	0.13158	1583879.0	1215931.0	711056.0	0.264367	0.536514
     29979.28	0.13762	1665153.0	1278112.0	747544.0	0.264533	0.536346
     29979.80	0.12087	1464911.0	1124742.0	657715.0	0.264241	0.536537
     29980.32	0.18704	2314725.0	1777289.0	1039844.0	0.264202	0.536018
     29980.83	0.096276	1148654.0	881946.0	515855.0	0.264215	0.536305
     29981.35	0.10693	1299037.0	997489.0	583728.0	0.264137	0.535806
     29981.87	0.10321	1236343.0	949176.0	555464.0	0.264319	0.535790
     29982.38	0.11686	1394414.0	1070505.0	626678.0	0.264344	0.535453
     29982.90	0.12234	1479998.0	1136949.0	665302.0	0.263692	0.535863
     29983.42	0.13366	1625535.0	1248291.0	730909.0	0.264062	0.535242
     29983.94	0.12051	1452494.0	1115637.0	653416.0	0.263857	0.534967
     29984.45	0.14354	1705609.0	1309604.0	766748.0	0.264197	0.535322
     29984.97	0.096271	1143209.0	878246.0	514161.0	0.263668	0.535390
     29985.49	0.087042	1027912.0	789690.0	462368.0	0.263644	0.535279
     29986.00	0.12266	1445750.0	1110507.0	650357.0	0.263812	0.535051
     29986.52	0.11073	1337788.0	1027711.0	602007.0	0.263684	0.534820
     29987.04	0.12261	1454606.0	1117539.0	654446.0	0.263606	0.535095
     29987.56	0.12751	1529765.0	1175282.0	688295.0	0.263606	0.535046
     29988.07	0.14244	1712382.0	1315099.0	770801.0	0.263973	0.534237
     29988.59	0.17759	2143758.0	1647254.0	964852.0	0.263451	0.534890
     29989.11	0.094030	1142096.0	877429.0	514318.0	0.263624	0.534154
     29989.63	0.089074	1080672.0	830187.0	486656.0	0.263687	0.534093
     29990.14	0.13541	1586332.0	1219073.0	714546.0	0.263334	0.534199
     29990.66	0.12447	1470366.0	1129490.0	662085.0	0.263745	0.534128
     29991.18	0.13876	1644038.0	1263057.0	740511.0	0.263620	0.533950
     29991.70	0.12187	1470660.0	1129948.0	662483.0	0.263540	0.533932
     29992.21	0.12616	1525847.0	1172566.0	687737.0	0.263355	0.533543
     29992.73	0.22288	2664495.0	2047606.0	1200682.0	0.263343	0.533782
     29993.25	0.092117	1099220.0	844685.0	494956.0	0.263392	0.534495
     29993.77	0.084637	1003995.0	771558.0	452398.0	0.263330	0.533850
     29994.28	0.12142	1447132.0	1112146.0	652227.0	0.263292	0.533654
     29994.80	0.13295	1599015.0	1228778.0	721248.0	0.263368	0.532792
     29995.32	0.13006	1551211.0	1192283.0	699358.0	0.263166	0.533462
     29995.84	0.13694	1671741.0	1284764.0	754065.0	0.263291	0.532852
     29996.35	0.15560	1875922.0	1441944.0	846349.0	0.263108	0.532816
     29996.87	0.17426	2074632.0	1594427.0	935560.0	0.263269	0.533124
     29997.39	0.086382	1037105.0	797104.0	468013.0	0.263203	0.532489
     29997.91	0.11662	1378902.0	1059899.0	622105.0	0.263114	0.532820
     29998.42	0.13071	1572025.0	1208220.0	709134.0	0.263216	0.532859
     29998.94	0.12748	1530043.0	1176470.0	690592.0	0.262777	0.532725
     29999.46	0.12612	1503819.0	1155983.0	678540.0	0.263057	0.532763
     29999.98	0.12792	1526258.0	1173401.0	689110.0	0.262913	0.532261
     30000.50	0.12763	1531395.0	1177151.0	691211.0	0.263082	0.532407
     30001.01	0.12225	1502315.0	1155176.0	678523.0	0.262755	0.532090
     30001.53	0.12458	1511599.0	1162441.0	682721.0	0.262646	0.532191
     30002.05	0.12956	1560896.0	1200446.0	705135.0	0.262567	0.532059
     30002.57	0.12205	1436358.0	1104691.0	648653.0	0.262545	0.532423
     30003.08	0.13269	1577418.0	1213069.0	712525.0	0.262636	0.532094
     30003.60	0.11659	1396849.0	1074288.0	630843.0	0.262561	0.532356
     30004.12	0.12808	1509286.0	1160477.0	681948.0	0.262806	0.531633
     30004.64	0.11815	1418652.0	1091009.0	641063.0	0.262604	0.531730
     30005.16	0.12204	1490749.0	1146003.0	673614.0	0.262998	0.531378
     30005.67	0.12278	1460037.0	1122762.0	660077.0	0.262670	0.531191
     30006.19	0.11911	1433368.0	1102655.0	648084.0	0.262306	0.531456
     30006.71	0.11360	1353601.0	1041199.0	612110.0	0.262396	0.531216
     30007.23	0.12992	1589854.0	1223043.0	719080.0	0.262300	0.531125
     30007.75	0.12489	1482342.0	1140128.0	670274.0	0.262483	0.531209
     30008.26	0.12535	1483318.0	1141018.0	670941.0	0.262361	0.530995
     30008.78	0.12267	1445697.0	1112138.0	654052.0	0.262307	0.530853
     30009.30	0.12315	1481528.0	1139933.0	670341.0	0.262104	0.530938
     30009.82	0.13919	1626489.0	1251224.0	735979.0	0.262301	0.530676
     30010.34	0.12273	1433760.0	1103667.0	649280.0	0.261662	0.530529
     30010.86	0.12759	1494862.0	1150255.0	676379.0	0.262050	0.530985
     30011.37	0.12973	1553578.0	1195361.0	702983.0	0.262112	0.530871
     30011.89	0.12971	1541363.0	1186001.0	697970.0	0.262080	0.530166
     30012.41	0.10965	1281010.0	986041.0	580357.0	0.261706	0.530055
     30012.93	0.12305	1447233.0	1113669.0	655529.0	0.261993	0.529973
     30013.45	0.12900	1557755.0	1198918.0	705638.0	0.261826	0.530072
     30013.96	0.12049	1442934.0	1110526.0	653645.0	0.261845	0.530025
     30014.48	0.12968	1519267.0	1169195.0	688317.0	0.261913	0.529821
     30015.00	0.12732	1509315.0	1161888.0	684164.0	0.261610	0.529604
     30015.52	0.12750	1448791.0	1114794.0	656462.0	0.262060	0.529560
     30016.04	0.13532	1575067.0	1212464.0	713898.0	0.261643	0.529670
     30016.56	0.13019	1502098.0	1156356.0	681023.0	0.261589	0.529433
     30017.07	0.12534	1495339.0	1151016.0	677878.0	0.261708	0.529433
     30017.59	0.13054	1532789.0	1180051.0	695417.0	0.261531	0.528801
     30018.11	0.12933	1515155.0	1166582.0	687298.0	0.261440	0.529065
     30018.63	0.13366	1573347.0	1210995.0	713091.0	0.261763	0.529589
     30019.15	0.12971	1555819.0	1197987.0	706006.0	0.261359	0.528774
     30019.67	0.11984	1417217.0	1091219.0	642898.0	0.261400	0.529065
     30020.18	0.13317	1559081.0	1200712.0	707603.0	0.261182	0.528787
     30020.70	0.11264	1324041.0	1019576.0	600927.0	0.261302	0.528669
     30021.22	0.13148	1571378.0	1209848.0	713196.0	0.261458	0.528494
     30021.74	0.11352	1348351.0	1038267.0	611974.0	0.261329	0.528618
     30022.26	0.12391	1449830.0	1116493.0	658491.0	0.261254	0.527997
     30022.78	0.12457	1432968.0	1103462.0	650557.0	0.261295	0.528379
     30023.30	0.12773	1513699.0	1165410.0	687291.0	0.261483	0.528070
     30023.81	0.11149	1307509.0	1007028.0	593829.0	0.261120	0.528167
     30024.33	0.12476	1490196.0	1147794.0	676763.0	0.261066	0.528276
     30024.85	0.12196	1526070.0	1175272.0	692923.0	0.261196	0.528336
     30025.37	0.12398	1510677.0	1163419.0	686196.0	0.261195	0.527955
     30025.89	0.10354	1246896.0	960309.0	566682.0	0.261157	0.527457
     30026.41	0.10221	1200707.0	925001.0	545879.0	0.260871	0.527397
     30026.93	0.12188	1453581.0	1119460.0	660625.0	0.261184	0.527415
     30027.44	0.12490	1469185.0	1131861.0	668247.0	0.260845	0.526961
     30027.96	0.11810	1415463.0	1090448.0	643483.0	0.260868	0.527448
     30028.48	0.13635	1622392.0	1249647.0	737691.0	0.261040	0.527091
     30029.00	0.13071	1485818.0	1144643.0	675485.0	0.260873	0.527417
     30029.52	0.13397	1597567.0	1230576.0	726566.0	0.260999	0.526908
     30030.04	0.11353	1367420.0	1053097.0	621428.0	0.261190	0.527471
     30030.56	0.12616	1507146.0	1160653.0	685541.0	0.261235	0.526530
     30031.08	0.12693	1495229.0	1152059.0	680069.0	0.260729	0.527112
     30031.60	0.12919	1535927.0	1183271.0	698618.0	0.260851	0.526934
     30032.11	0.13856	1643714.0	1266618.0	748046.0	0.260608	0.526641
     30032.63	0.14122	1642170.0	1265359.0	747534.0	0.260663	0.526331
     30033.15	0.15669	1872567.0	1442981.0	852082.0	0.260599	0.526784
     30033.67	0.099010	1134289.0	874368.0	516484.0	0.260260	0.526457
     30034.19	0.10557	1251212.0	964343.0	569882.0	0.260421	0.526018
     30034.71	0.12950	1549691.0	1194433.0	705687.0	0.260384	0.526255
     30035.23	0.13508	1609564.0	1240815.0	733427.0	0.260195	0.525796
     30035.75	0.13829	1623843.0	1251172.0	739822.0	0.260715	0.525426
     30036.27	0.12865	1492999.0	1150932.0	680309.0	0.260215	0.525780
     30036.78	0.14141	1677463.0	1292944.0	764346.0	0.260361	0.525657
     30037.30	0.14388	1718615.0	1324903.0	783176.0	0.260179	0.525737
     30037.82	0.12237	1434564.0	1105728.0	653844.0	0.260357	0.525390
     30038.34	0.12496	1456376.0	1122448.0	663857.0	0.260439	0.525201
     30038.86	0.13252	1517645.0	1169864.0	691877.0	0.260272	0.525235
     30039.38	0.12605	1499089.0	1155499.0	683309.0	0.260325	0.525340
     30039.90	0.12757	1526171.0	1176576.0	696136.0	0.260153	0.524819
     30040.42	0.12360	1484273.0	1144289.0	677018.0	0.260142	0.524841
     30040.94	0.12571	1454043.0	1121078.0	663535.0	0.260057	0.524464
     30041.46	0.12224	1419798.0	1094434.0	647629.0	0.260277	0.524675
     30041.98	0.12518	1460346.0	1125996.0	666158.0	0.260005	0.524896
     30042.50	0.13413	1555094.0	1199179.0	709428.0	0.259899	0.524933
     30043.01	0.11730	1380606.0	1064771.0	630387.0	0.259763	0.524181
     30043.53	0.13073	1546874.0	1193006.0	705949.0	0.259760	0.524688
     30044.05	0.12360	1431392.0	1103774.0	653145.0	0.259912	0.524691
     30044.57	0.12182	1469992.0	1133523.0	671000.0	0.259926	0.524317
     30045.09	0.12531	1477388.0	1138955.0	674547.0	0.260164	0.523825
     30045.61	0.11761	1387707.0	1070145.0	633618.0	0.259859	0.524103
     30046.13	0.11690	1360016.0	1049016.0	621082.0	0.259644	0.524145
     30046.65	0.12625	1484570.0	1145043.0	678200.0	0.259683	0.523755
     30047.17	0.12018	1429920.0	1103125.0	653058.0	0.259471	0.524236
     30047.69	0.11525	1353515.0	1043911.0	618434.0	0.259731	0.523539
     30048.21	0.12493	1476508.0	1139347.0	675082.0	0.259225	0.523376
     30048.73	0.12276	1429465.0	1102860.0	653343.0	0.259393	0.523560
     30049.25	0.12885	1529467.0	1180180.0	699184.0	0.259252	0.523508
