# Diamond Light Source
# Instrument: B18-CORE XAS Date: Wed, 27 Jul 2016 23:03:08 BST
# Ring energy:   3.0
# Ring current - start: 300.5
# Primary slits:  vertical gap=  2.4; horizontal gap= 52.0; vertical offset=  0.4; horizontal offset= -1.0
# Secondary slits:  vertical gap=  3.5; horizontal gap= 23.0; vertical offset=  5.3; horizontal offset= -14.5
# OH Mirror Coating: Pt
# White beam filter: 140um PyC
# Crystal cut: Si(311)
# PostDCM slits:  vertical gap= 18.0; horizontal gap= 28.0; vertical offset= -9.1; horizontal offset= -16.5
# Experimental slits:  vertical gap= 28.6; horizontal gap= 45.0; vertical offset=  5.7; horizontal offset= -17.5
# HR Mirror : out; Y: 37.8; Pitch:  0.3; Coating: Pt
# Mirror 2: Pitch:  2.3; Height: -6.4; Yaw: -1.6; Bend:  0.8;
# I0 Stanford sensitivity: 20 nA/V Offsets: 20 pA
# It Stanford sensitivity: 100 nA/V Offsets: 1 pA
# Iref Stanford sensitivity: 20 nA/V Offsets: 1 pA
#
# Ascii output file name: 'Andrea_Sn//ascii/262886_PtSn_OCH_Abu_2.dat'
# Nexus output file: '/dls/b18/data/2016/sp10306-9/Andrea_Sn//nexus/262886_PtSn_OCH_Abu_2.nxs'
# XML folder and files:
# /dls/b18/data/2016/sp10306-9/xml/Andrea_Sn/
# QEXAFS_Parameters
# Sample_Parameters
# Detector_Parameters
# Output_Parameters
# The contents of these files are also stored in the nexus file.
#
# Sample name: PtSn_OCH_Abu
# Sample description: default sample description
# Additional comments: default additional comments
# command: qexafs_energy 29000.0 30050.0 2094 263.53 qexafs_counterTimer01
#
#
# qexafs_energy	   time	       I0	       It	     Iref	  lnI0It	 lnItIref
     29000.24	0.14181	2146631.0	1913137.0	3975623.0	0.115155	-0.731437
     29000.73	0.17517	2642023.0	2353972.0	4891094.0	0.115441	-0.731312
     29001.21	0.14017	2106026.0	1876777.0	3899647.0	0.115247	-0.731330
     29001.69	0.095818	1451792.0	1293967.0	2688415.0	0.115086	-0.731239
     29002.18	0.11892	1782104.0	1588183.0	3300015.0	0.115204	-0.731336
     29002.66	0.12554	1896963.0	1690804.0	3513544.0	0.115050	-0.731421
     29003.14	0.13200	1962343.0	1748973.0	3633992.0	0.115110	-0.731303
     29003.63	0.13380	2023787.0	1804356.0	3749803.0	0.114767	-0.731500
     29004.11	0.10783	1608829.0	1434119.0	2980748.0	0.114956	-0.731624
     29004.59	0.13796	2094758.0	1867112.0	3879313.0	0.115045	-0.731265
     29005.08	0.11975	1805423.0	1609392.0	3344178.0	0.114938	-0.731364
     29005.56	0.13128	1978413.0	1763273.0	3664656.0	0.115123	-0.731563
     29006.05	0.11925	1825883.0	1627826.0	3381910.0	0.114818	-0.731195
     29006.53	0.12500	1873940.0	1670813.0	3471548.0	0.114733	-0.731290
     29007.01	0.13269	2002553.0	1785500.0	3710282.0	0.114724	-0.731409
     29007.50	0.11334	1710236.0	1524822.0	3168062.0	0.114754	-0.731242
     29007.98	0.13995	2099492.0	1871523.0	3889482.0	0.114943	-0.731523
     29008.46	0.12351	1874166.0	1670763.0	3471926.0	0.114883	-0.731429
     29008.95	0.10558	1567630.0	1397841.0	2905391.0	0.114636	-0.731639
     29009.43	0.11726	1761976.0	1571281.0	3264768.0	0.114545	-0.731297
     29009.92	0.12427	1855300.0	1654334.0	3438032.0	0.114648	-0.731501
     29010.40	0.12327	1845559.0	1645660.0	3419348.0	0.114641	-0.731308
     29010.88	0.12377	1839541.0	1640254.0	3408726.0	0.114665	-0.731488
     29011.37	0.12008	1818824.0	1621942.0	3370057.0	0.114566	-0.731305
     29011.85	0.12753	1883587.0	1679661.0	3490788.0	0.114586	-0.731536
     29012.34	0.13906	2078741.0	1853913.0	3851805.0	0.114464	-0.731243
     29012.82	0.12245	1852295.0	1651595.0	3432309.0	0.114684	-0.731492
     29013.30	0.12885	1922724.0	1714355.0	3563084.0	0.114706	-0.731590
     29013.79	0.12678	1906113.0	1700273.0	3532081.0	0.114277	-0.731098
     29014.27	0.12712	1920036.0	1712594.0	3559300.0	0.114335	-0.731555
     29014.76	0.13015	1970618.0	1757506.0	3651943.0	0.114451	-0.731364
     29015.24	0.13106	1947017.0	1736205.0	3608094.0	0.114597	-0.731478
     29015.72	0.11756	1768867.0	1577449.0	3277777.0	0.114530	-0.731356
     29016.21	0.12058	1800436.0	1605809.0	3336988.0	0.114401	-0.731441
     29016.69	0.12500	1890930.0	1686610.0	3504959.0	0.114348	-0.731458
     29017.18	0.12236	1838558.0	1640135.0	3407906.0	0.114203	-0.731319
     29017.66	0.13140	1988144.0	1773280.0	3685068.0	0.114371	-0.731458
     29018.14	0.13029	1973555.0	1760484.0	3659001.0	0.114248	-0.731601
     29018.63	0.12778	1904806.0	1699231.0	3531210.0	0.114204	-0.731465
     29019.11	0.12788	1921936.0	1714166.0	3563086.0	0.114406	-0.731700
     29019.60	0.13238	2018116.0	1800156.0	3740424.0	0.114291	-0.731326
     29020.08	0.12994	1942020.0	1732375.0	3600028.0	0.114235	-0.731448
     29020.57	0.12129	1835160.0	1637371.0	3402224.0	0.114040	-0.731337
     29021.05	0.12313	1880025.0	1677384.0	3486534.0	0.114050	-0.731673
     29021.53	0.13348	1973968.0	1761403.0	3659895.0	0.113935	-0.731324
     29022.02	0.12406	1835103.0	1636543.0	3401074.0	0.114515	-0.731505
     29022.50	0.12919	1951802.0	1741477.0	3619507.0	0.114019	-0.731604
     29022.99	0.13192	1918728.0	1712029.0	3557882.0	0.113983	-0.731486
     29023.47	0.14465	2169869.0	1936287.0	4023409.0	0.113895	-0.731357
     29023.96	0.11031	1633339.0	1457378.0	3028857.0	0.113987	-0.731546
     29024.44	0.10709	1593860.0	1421975.0	2954771.0	0.114112	-0.731374
     29024.92	0.11493	1725184.0	1539114.0	3198414.0	0.114127	-0.731448
     29025.41	0.12383	1855525.0	1655877.0	3440291.0	0.113837	-0.731225
     29025.89	0.12440	1864921.0	1663900.0	3458355.0	0.114054	-0.731629
     29026.38	0.12509	1841906.0	1643955.0	3416365.0	0.113696	-0.731472
     29026.86	0.11375	1729279.0	1543109.0	3206646.0	0.113905	-0.731426
     29027.35	0.12933	1931167.0	1723804.0	3582694.0	0.113591	-0.731582
     29027.83	0.094097	1404256.0	1253352.0	2604513.0	0.113686	-0.731424
     29028.32	0.11214	1675492.0	1495773.0	3108119.0	0.113464	-0.731375
     29028.80	0.12195	1846927.0	1648662.0	3426218.0	0.113559	-0.731493
     29029.28	0.11651	1781698.0	1590251.0	3304294.0	0.113675	-0.731331
     29029.77	0.11861	1752003.0	1563597.0	3250510.0	0.113771	-0.731823
     29030.25	0.15381	2255951.0	2013873.0	4185276.0	0.113512	-0.731513
     29030.74	0.13951	2072660.0	1849943.0	3844722.0	0.113678	-0.731546
     29031.22	0.11258	1689254.0	1508035.0	3134018.0	0.113480	-0.731508
     29031.71	0.11328	1705471.0	1522685.0	3164183.0	0.113366	-0.731420
     29032.19	0.12141	1835183.0	1638584.0	3404801.0	0.113312	-0.731354
     29032.68	0.13393	1993693.0	1779582.0	3697926.0	0.113610	-0.731394
     29033.16	0.13363	2038501.0	1819618.0	3781635.0	0.113588	-0.731530
     29033.65	0.14602	2215937.0	1978417.0	4111280.0	0.113378	-0.731437
     29034.13	0.14315	2157407.0	1926403.0	4002983.0	0.113253	-0.731385
     29034.62	0.14747	2212897.0	1976061.0	4106641.0	0.113197	-0.731500
     29035.10	0.087254	1316274.0	1175432.0	2443150.0	0.113169	-0.731652
     29035.58	0.12355	1859165.0	1659765.0	3449442.0	0.113451	-0.731536
     29036.07	0.12306	1882323.0	1680574.0	3491176.0	0.113371	-0.731103
     29036.55	0.13775	2088192.0	1864581.0	3873973.0	0.113262	-0.731244
     29037.04	0.12412	1849804.0	1652003.0	3432743.0	0.113091	-0.731371
     29037.52	0.14102	2119312.0	1892484.0	3932913.0	0.113201	-0.731490
     29038.01	0.13097	1974253.0	1762980.0	3662610.0	0.113185	-0.731170
     29038.49	0.14392	2131554.0	1904072.0	3956423.0	0.112857	-0.731346
     29038.98	0.12241	1879718.0	1678395.0	3486963.0	0.113284	-0.731193
     29039.46	0.13317	1988527.0	1776144.0	3690120.0	0.112949	-0.731214
     29039.95	0.13281	2032228.0	1814975.0	3771253.0	0.113061	-0.731336
     29040.43	0.12689	1918917.0	1713481.0	3560540.0	0.113234	-0.731385
     29040.92	0.12659	1906993.0	1703041.0	3538269.0	0.113112	-0.731222
     29041.40	0.12416	1863746.0	1664552.0	3458826.0	0.113032	-0.731373
     29041.89	0.13172	2006777.0	1792411.0	3724217.0	0.112968	-0.731295
     29042.37	0.11375	1724632.0	1539755.0	3199068.0	0.113390	-0.731236
     29042.86	0.13226	1994249.0	1781317.0	3700874.0	0.112915	-0.731216
     29043.34	0.12315	1889244.0	1687497.0	3505427.0	0.112930	-0.731066
     29043.83	0.12879	1957737.0	1748672.0	3631940.0	0.112933	-0.730910
     29044.31	0.12709	1937593.0	1730594.0	3595069.0	0.112982	-0.731098
     29044.80	0.12529	1895295.0	1692986.0	3518197.0	0.112881	-0.731455
     29045.28	0.11427	1731610.0	1546928.0	3213356.0	0.112781	-0.731045
     29045.77	0.12187	1873212.0	1673513.0	3476410.0	0.112730	-0.731075
     29046.25	0.11977	1824419.0	1629946.0	3385914.0	0.112715	-0.731077
     29046.74	0.12367	1896008.0	1693887.0	3517926.0	0.112725	-0.730846
     29047.22	0.11529	1756468.0	1569129.0	3260050.0	0.112784	-0.731222
     29047.71	0.12747	1969178.0	1759412.0	3653884.0	0.112637	-0.730811
     29048.19	0.11623	1759914.0	1572058.0	3264872.0	0.112879	-0.730835
     29048.68	0.13575	2059278.0	1839751.0	3821297.0	0.112725	-0.730960
     29049.16	0.11700	1790333.0	1599650.0	3322630.0	0.112617	-0.730972
     29049.65	0.11955	1818887.0	1625473.0	3376293.0	0.112426	-0.730980
     29050.13	0.13461	2074556.0	1853737.0	3850208.0	0.112544	-0.730924
     29050.62	0.13009	2001732.0	1788564.0	3714887.0	0.112600	-0.730935
     29051.10	0.13059	1991697.0	1779819.0	3695610.0	0.112475	-0.730634
     29051.59	0.13936	2129104.0	1902435.0	3950936.0	0.112567	-0.730818
     29052.08	0.11990	1836979.0	1641351.0	3408348.0	0.112603	-0.730708
     29052.56	0.11703	1769443.0	1581485.0	3284224.0	0.112301	-0.730766
     29053.05	0.11920	1819243.0	1626195.0	3377891.0	0.112178	-0.731009
     29053.53	0.12364	1821549.0	1627904.0	3381036.0	0.112394	-0.730889
     29054.02	0.12297	1880337.0	1680038.0	3489017.0	0.112635	-0.730804
     29054.50	0.12846	1950462.0	1743363.0	3620579.0	0.112250	-0.730818
     29054.99	0.12895	1957973.0	1750082.0	3634398.0	0.112247	-0.730781
     29055.47	0.12761	1924869.0	1720153.0	3572403.0	0.112445	-0.730825
     29055.96	0.13117	1984737.0	1774384.0	3684165.0	0.112033	-0.730591
     29056.44	0.12598	1926394.0	1722160.0	3576530.0	0.112071	-0.730814
     29056.93	0.13368	2031633.0	1815672.0	3770329.0	0.112384	-0.730707
     29057.41	0.12255	1845325.0	1649704.0	3425252.0	0.112060	-0.730579
     29057.90	0.13767	2091213.0	1869169.0	3880812.0	0.112250	-0.730550
     29058.39	0.12387	1848941.0	1652518.0	3431680.0	0.112313	-0.730750
     29058.87	0.13036	1942989.0	1737141.0	3606530.0	0.111987	-0.730505
     29059.36	0.13154	1959586.0	1752157.0	3637987.0	0.111886	-0.730583
     29059.84	0.12049	1807099.0	1615456.0	3354344.0	0.112106	-0.730639
     29060.33	0.14252	2110290.0	1886616.0	3917112.0	0.112041	-0.730570
     29060.81	0.11074	1631965.0	1459412.0	3029926.0	0.111751	-0.730505
     29061.30	0.11192	1676411.0	1498856.0	3112053.0	0.111953	-0.730580
     29061.78	0.12936	1932128.0	1727186.0	3585525.0	0.112128	-0.730411
     29062.27	0.12121	1817568.0	1625582.0	3374728.0	0.111633	-0.730449
     29062.76	0.12975	1932491.0	1727814.0	3586891.0	0.111953	-0.730429
     29063.24	0.11677	1778340.0	1589973.0	3300582.0	0.111963	-0.730382
     29063.73	0.13388	2036808.0	1821463.0	3781180.0	0.111744	-0.730396
     29064.21	0.15600	2314748.0	2069803.0	4296684.0	0.111847	-0.730390
     29064.70	0.085702	1285254.0	1148928.0	2384714.0	0.112127	-0.730250
     29065.18	0.11218	1678595.0	1500568.0	3115553.0	0.112113	-0.730563
     29065.67	0.085520	1263502.0	1129715.0	2344692.0	0.111922	-0.730189
     29066.16	0.11589	1740134.0	1556682.0	3231122.0	0.111405	-0.730273
     29066.64	0.11850	1766892.0	1580060.0	3279516.0	0.111759	-0.730233
     29067.13	0.12141	1786933.0	1598239.0	3317685.0	0.111598	-0.730365
     29067.61	0.13599	2057670.0	1840414.0	3820027.0	0.111584	-0.730267
     29068.10	0.16953	2524950.0	2257875.0	4685263.0	0.111797	-0.729998
     29068.59	0.093693	1396282.0	1249168.0	2591971.0	0.111335	-0.729941
     29069.07	0.12718	1905957.0	1704414.0	3537284.0	0.111763	-0.730138
     29069.56	0.10906	1649804.0	1475454.0	3061697.0	0.111691	-0.730004
     29070.04	0.12336	1862398.0	1666401.0	3458121.0	0.111199	-0.730059
     29070.53	0.12983	1918389.0	1716241.0	3561757.0	0.111349	-0.730118
     29071.01	0.14577	2154208.0	1927000.0	3998940.0	0.111459	-0.730065
     29071.50	0.17235	2589692.0	2317003.0	4808021.0	0.111264	-0.730011
     29071.99	0.14715	2200655.0	1968619.0	4085196.0	0.111423	-0.730037
     29072.47	0.070254	1059294.0	947328.0	1965449.0	0.111713	-0.729831
     29072.96	0.12181	1795206.0	1605713.0	3331328.0	0.111552	-0.729803
     29073.44	0.11916	1745932.0	1562299.0	3240928.0	0.111130	-0.729701
     29073.93	0.13601	2009238.0	1797535.0	3728529.0	0.111339	-0.729598
     29074.42	0.13151	1974857.0	1766849.0	3665274.0	0.111298	-0.729705
     29074.90	0.14125	2108955.0	1886818.0	3913129.0	0.111301	-0.729445
     29075.39	0.14565	2181837.0	1952006.0	4048256.0	0.111310	-0.729429
     29075.87	0.15816	2341842.0	2095358.0	4346078.0	0.111213	-0.729549
     29076.36	0.10599	1575288.0	1409257.0	2923201.0	0.111375	-0.729617
     29076.85	0.11710	1738803.0	1555485.0	3226396.0	0.111410	-0.729578
     29077.33	0.13420	1989525.0	1780305.0	3692203.0	0.111111	-0.729439
     29077.82	0.12447	1819458.0	1628192.0	3375499.0	0.111068	-0.729073
     29078.31	0.13874	2076146.0	1857272.0	3850924.0	0.111405	-0.729204
     29078.79	0.12408	1834918.0	1641556.0	3403378.0	0.111355	-0.729124
     29079.28	0.15829	2356929.0	2109025.0	4372265.0	0.111134	-0.729055
     29079.76	0.098421	1466481.0	1312119.0	2720479.0	0.111222	-0.729165
     29080.25	0.11830	1758107.0	1574055.0	3262611.0	0.110583	-0.728873
     29080.74	0.11804	1770061.0	1583889.0	3283742.0	0.111131	-0.729100
     29081.22	0.13316	1972783.0	1765173.0	3658835.0	0.111197	-0.728896
     29081.71	0.11689	1725160.0	1543488.0	3200102.0	0.111275	-0.729138
     29082.20	0.13297	1972861.0	1765473.0	3658944.0	0.111066	-0.728756
     29082.68	0.12337	1821654.0	1630603.0	3378657.0	0.110795	-0.728528
     29083.17	0.12799	1906630.0	1706320.0	3536024.0	0.110998	-0.728664
     29083.65	0.11440	1685264.0	1508269.0	3125726.0	0.110960	-0.728704
     29084.14	0.12981	1938397.0	1734947.0	3594013.0	0.110884	-0.728293
     29084.63	0.12017	1752530.0	1568229.0	3249720.0	0.111114	-0.728622
     29085.11	0.12304	1814439.0	1623978.0	3365356.0	0.110898	-0.728655
     29085.60	0.12130	1801771.0	1612581.0	3340953.0	0.110934	-0.728420
     29086.09	0.12110	1819813.0	1628754.0	3374673.0	0.110918	-0.728483
     29086.57	0.11529	1721204.0	1540885.0	3191332.0	0.110667	-0.728081
     29087.06	0.12916	1974859.0	1767812.0	3662082.0	0.110754	-0.728289
     29087.55	0.11902	1751242.0	1567496.0	3246792.0	0.110846	-0.728188
     29088.03	0.13024	1932564.0	1730144.0	3582902.0	0.110643	-0.727968
     29088.52	0.13946	2075309.0	1857855.0	3847309.0	0.110687	-0.727951
     29089.01	0.11513	1690239.0	1513248.0	3132994.0	0.110612	-0.727731
     29089.49	0.14734	2181965.0	1953227.0	4044985.0	0.110743	-0.727995
     29089.98	0.12265	1842373.0	1649521.0	3414803.0	0.110569	-0.727635
     29090.47	0.12888	1936958.0	1734312.0	3590347.0	0.110508	-0.727638
     29090.95	0.12014	1830210.0	1638776.0	3391826.0	0.110481	-0.727419
     29091.44	0.12884	1939939.0	1736928.0	3594999.0	0.110538	-0.727426
     29091.93	0.11631	1757494.0	1574160.0	3257976.0	0.110167	-0.727384
     29092.41	0.12554	1896540.0	1698198.0	3514397.0	0.110463	-0.727300
     29092.90	0.12187	1836802.0	1644899.0	3403049.0	0.110347	-0.726993
     29093.39	0.12721	1914515.0	1714386.0	3547209.0	0.110409	-0.727106
     29093.87	0.12730	1867498.0	1672643.0	3461107.0	0.110195	-0.727183
     29094.36	0.13714	2023698.0	1812093.0	3749186.0	0.110444	-0.727056
     29094.85	0.13630	1979695.0	1772875.0	3666740.0	0.110340	-0.726700
     29095.33	0.13308	1978965.0	1772151.0	3665863.0	0.110380	-0.726870
     29095.82	0.11498	1718354.0	1538588.0	3182251.0	0.110502	-0.726724
     29096.31	0.13164	1960857.0	1756075.0	3631257.0	0.110300	-0.726498
     29096.79	0.12626	1886715.0	1689984.0	3493926.0	0.110118	-0.726307
     29097.28	0.12702	1903195.0	1704805.0	3524143.0	0.110083	-0.726187
     29097.77	0.14593	2195719.0	1966242.0	4064903.0	0.110385	-0.726266
     29098.25	0.11164	1696760.0	1519691.0	3141433.0	0.110214	-0.726172
     29098.74	0.11995	1791498.0	1604618.0	3316336.0	0.110166	-0.725975
     29099.23	0.13058	1989063.0	1781530.0	3681148.0	0.110191	-0.725752
     29099.71	0.10789	1640952.0	1469958.0	3036928.0	0.110043	-0.725613
     29100.20	0.12701	1935868.0	1734123.0	3582808.0	0.110054	-0.725645
     29100.69	0.13302	1997721.0	1789571.0	3698030.0	0.110031	-0.725824
     29101.17	0.12277	1867303.0	1672923.0	3455808.0	0.109923	-0.725484
     29101.66	0.12510	1914818.0	1715332.0	3542623.0	0.110016	-0.725261
     29102.15	0.10797	1637152.0	1466540.0	3028305.0	0.110052	-0.725097
     29102.64	0.12088	1810172.0	1621493.0	3348495.0	0.110075	-0.725164
     29103.12	0.10767	1624398.0	1454883.0	3004483.0	0.110212	-0.725180
     29103.61	0.11859	1773897.0	1589216.0	3281093.0	0.109938	-0.724936
     29104.10	0.11023	1649469.0	1478008.0	3050936.0	0.109758	-0.724753
     29104.58	0.12467	1850412.0	1657719.0	3421337.0	0.109966	-0.724589
     29105.07	0.11681	1758549.0	1575578.0	3251935.0	0.109867	-0.724628
     29105.56	0.11989	1791727.0	1605312.0	3312326.0	0.109862	-0.724333
     29106.04	0.12877	1944276.0	1742592.0	3596172.0	0.109516	-0.724496
     29106.53	0.13253	1989357.0	1782459.0	3676478.0	0.109818	-0.723961
     29107.02	0.11857	1786133.0	1599964.0	3299730.0	0.110072	-0.723860
     29107.51	0.11804	1776702.0	1592133.0	3283655.0	0.109684	-0.723883
     29107.99	0.12732	1913225.0	1714262.0	3534896.0	0.109808	-0.723701
     29108.48	0.13213	1991676.0	1784698.0	3679507.0	0.109727	-0.723530
     29108.97	0.13656	2032348.0	1821314.0	3753164.0	0.109634	-0.723041
     29109.46	0.13700	2045081.0	1832590.0	3776959.0	0.109707	-0.723189
     29109.94	0.12719	1894828.0	1697507.0	3498550.0	0.109967	-0.723188
     29110.43	0.12333	1809718.0	1621866.0	3340835.0	0.109594	-0.722643
     29110.92	0.13951	2111631.0	1892687.0	3898411.0	0.109463	-0.722572
     29111.40	0.11635	1734045.0	1553933.0	3200217.0	0.109668	-0.722429
     29111.89	0.12780	1921409.0	1721990.0	3545744.0	0.109578	-0.722267
     29112.38	0.13680	2065470.0	1851536.0	3811503.0	0.109342	-0.722008
     29112.87	0.12541	1874906.0	1680228.0	3458362.0	0.109629	-0.721866
     29113.35	0.13652	2094170.0	1876754.0	3862494.0	0.109614	-0.721769
     29113.84	0.13233	1983810.0	1777875.0	3657438.0	0.109600	-0.721344
     29114.33	0.14785	2201428.0	1972691.0	4058638.0	0.109708	-0.721449
     29114.82	0.12185	1823963.0	1635308.0	3362817.0	0.109180	-0.720948
     29115.30	0.13070	1923023.0	1723295.0	3543499.0	0.109660	-0.720877
     29115.79	0.13158	1979037.0	1773689.0	3646265.0	0.109549	-0.720642
     29116.28	0.14840	2229354.0	1997881.0	4107267.0	0.109625	-0.720671
     29116.77	0.13102	1960963.0	1757627.0	3611585.0	0.109471	-0.720182
     29117.25	0.12768	1900107.0	1703210.0	3499269.0	0.109395	-0.720039
     29117.74	0.12776	1893959.0	1698101.0	3488232.0	0.109159	-0.719884
     29118.23	0.12121	1835672.0	1645430.0	3379041.0	0.109409	-0.719590
     29118.72	0.12164	1847131.0	1655395.0	3399198.0	0.109594	-0.719500
     29119.20	0.12342	1877050.0	1682810.0	3453871.0	0.109236	-0.719031
     29119.69	0.11936	1818575.0	1630256.0	3345657.0	0.109316	-0.718926
     29120.18	0.13316	2015783.0	1807344.0	3707884.0	0.109149	-0.718603
     29120.67	0.11297	1678215.0	1504085.0	3085304.0	0.109546	-0.718465
     29121.15	0.12991	1929484.0	1729802.0	3546712.0	0.109246	-0.718014
     29121.64	0.12335	1870820.0	1677027.0	3438395.0	0.109354	-0.717982
     29122.13	0.12111	1784759.0	1599616.0	3278827.0	0.109520	-0.717722
     29122.62	0.11324	1695409.0	1520227.0	3115354.0	0.109064	-0.717483
     29123.10	0.12397	1837352.0	1647057.0	3373315.0	0.109335	-0.716906
     29123.59	0.11718	1731475.0	1552466.0	3178831.0	0.109129	-0.716669
     29124.08	0.12051	1802982.0	1616473.0	3309491.0	0.109195	-0.716548
     29124.57	0.12191	1825629.0	1636342.0	3348657.0	0.109461	-0.716096
     29125.06	0.12313	1830169.0	1640767.0	3357053.0	0.109244	-0.715900
     29125.54	0.12077	1795619.0	1610390.0	3293322.0	0.108873	-0.715420
     29126.03	0.12620	1899151.0	1703282.0	3482171.0	0.108850	-0.715099
     29126.52	0.12647	1862927.0	1669954.0	3413333.0	0.109353	-0.714893
     29127.01	0.13067	1926643.0	1727515.0	3529822.0	0.109095	-0.714563
     29127.49	0.12204	1814859.0	1627277.0	3323284.0	0.109100	-0.714045
     29127.98	0.13378	1994586.0	1788777.0	3652292.0	0.108904	-0.713823
     29128.47	0.12233	1841234.0	1651202.0	3369991.0	0.108932	-0.713407
     29128.96	0.13403	2031512.0	1821835.0	3716931.0	0.108936	-0.713054
     29129.45	0.13719	2052908.0	1841103.0	3754967.0	0.108892	-0.712715
     29129.93	0.12547	1872024.0	1678436.0	3422260.0	0.109158	-0.712439
     29130.42	0.11970	1772079.0	1588677.0	3239188.0	0.109252	-0.712421
     29130.91	0.12832	1938050.0	1737495.0	3540018.0	0.109238	-0.711687
     29131.40	0.11150	1698531.0	1523519.0	3102527.0	0.108741	-0.711194
     29131.89	0.12148	1800289.0	1614400.0	3287110.0	0.108984	-0.711045
     29132.37	0.13168	1952082.0	1750874.0	3562845.0	0.108781	-0.710444
     29132.86	0.12839	1929973.0	1731245.0	3520853.0	0.108665	-0.709862
     29133.35	0.12517	1857011.0	1665342.0	3385809.0	0.108938	-0.709562
     29133.84	0.12764	1883514.0	1688966.0	3432258.0	0.109023	-0.709102
     29134.33	0.13166	1967733.0	1765102.0	3585690.0	0.108674	-0.708742
     29134.81	0.12221	1865842.0	1673509.0	3397608.0	0.108790	-0.708149
     29135.30	0.13365	2013404.0	1805545.0	3664031.0	0.108964	-0.707701
     29135.79	0.13229	1992234.0	1786982.0	3623904.0	0.108728	-0.707024
     29136.28	0.12467	1872967.0	1679755.0	3405212.0	0.108876	-0.706659
     29136.77	0.13355	1983497.0	1778234.0	3603210.0	0.109241	-0.706204
     29137.25	0.13095	1959990.0	1757768.0	3559268.0	0.108895	-0.705510
     29137.74	0.12043	1778699.0	1595100.0	3228793.0	0.108946	-0.705172
     29138.23	0.13232	1973255.0	1769749.0	3580311.0	0.108847	-0.704612
     29138.72	0.11529	1668102.0	1495872.0	3024151.0	0.108977	-0.703921
     29139.21	0.12381	1846075.0	1655826.0	3345989.0	0.108762	-0.703462
     29139.70	0.11925	1801340.0	1615394.0	3261732.0	0.108952	-0.702679
     29140.18	0.12800	1889232.0	1694329.0	3419909.0	0.108884	-0.702327
     29140.67	0.12003	1769937.0	1587569.0	3202669.0	0.108740	-0.701781
     29141.16	0.12177	1789241.0	1604495.0	3234338.0	0.108982	-0.701015
     29141.65	0.12631	1900071.0	1704028.0	3432921.0	0.108896	-0.700417
     29142.14	0.11307	1725412.0	1547388.0	3115415.0	0.108898	-0.699794
     29142.63	0.10808	1616863.0	1450268.0	2918010.0	0.108739	-0.699154
     29143.11	0.11817	1764144.0	1582113.0	3180623.0	0.108904	-0.698316
     29143.60	0.11658	1746109.0	1566077.0	3146435.0	0.108816	-0.697696
     29144.09	0.12417	1837423.0	1647690.0	3308656.0	0.108990	-0.697168
     29144.58	0.10564	1593206.0	1428676.0	2866052.0	0.109000	-0.696187
     29145.07	0.11771	1752642.0	1571944.0	3151434.0	0.108811	-0.695545
     29145.56	0.12499	1860615.0	1668799.0	3342952.0	0.108803	-0.694750
     29146.04	0.12148	1802425.0	1616719.0	3235492.0	0.108734	-0.693782
     29146.53	0.13697	2055065.0	1843334.0	3686741.0	0.108732	-0.693167
     29147.02	0.12055	1778193.0	1594618.0	3186006.0	0.108963	-0.692134
     29147.51	0.12176	1808458.0	1621500.0	3237299.0	0.109123	-0.691388
     29148.00	0.13345	1974483.0	1770833.0	3531395.0	0.108857	-0.690243
     29148.49	0.12783	1915133.0	1717337.0	3422641.0	0.109012	-0.689638
     29148.98	0.13317	1992998.0	1786972.0	3558139.0	0.109117	-0.688715
     29149.46	0.12340	1843982.0	1653339.0	3288254.0	0.109130	-0.687560
     29149.95	0.17251	2562877.0	2298147.0	4565506.0	0.109027	-0.686426
     29150.44	0.10666	1585282.0	1420997.0	2820522.0	0.109404	-0.685563
     29150.93	0.11011	1627581.0	1459357.0	2893181.0	0.109099	-0.684361
     29151.42	0.12615	1889070.0	1693643.0	3353754.0	0.109203	-0.683198
     29151.91	0.13116	1946974.0	1746012.0	3453088.0	0.108942	-0.681935
     29152.40	0.13950	2089183.0	1873447.0	3700602.0	0.108993	-0.680715
     29152.88	0.12762	1908811.0	1711410.0	3376801.0	0.109163	-0.679611
     29153.37	0.14240	2152600.0	1929865.0	3803390.0	0.109226	-0.678443
     29153.86	0.16433	2435640.0	2183771.0	4297305.0	0.109156	-0.676935
     29154.35	0.10752	1595819.0	1430835.0	2812719.0	0.109129	-0.675893
     29154.84	0.11550	1729638.0	1551211.0	3044173.0	0.108876	-0.674193
     29155.33	0.13024	1939433.0	1738534.0	3407328.0	0.109353	-0.672886
     29155.82	0.13083	1975465.0	1771521.0	3467166.0	0.108965	-0.671499
     29156.31	0.13003	1919921.0	1720330.0	3361696.0	0.109768	-0.669929
     29156.79	0.13444	1979824.0	1774670.0	3462371.0	0.109393	-0.668339
     29157.28	0.12746	1912308.0	1713946.0	3337809.0	0.109513	-0.666516
     29157.77	0.13721	2022498.0	1812712.0	3523640.0	0.109509	-0.664670
     29158.26	0.12699	1888093.0	1692356.0	3284073.0	0.109446	-0.662963
     29158.75	0.12219	1824711.0	1635531.0	3168435.0	0.109454	-0.661270
     29159.24	0.12057	1808588.0	1620893.0	3133529.0	0.109569	-0.659183
     29159.73	0.11896	1745589.0	1564217.0	3018193.0	0.109707	-0.657273
     29160.22	0.13115	1946123.0	1744267.0	3358267.0	0.109505	-0.655091
     29160.71	0.12904	1908427.0	1710042.0	3285970.0	0.109761	-0.653144
     29161.19	0.13217	1974584.0	1769043.0	3391486.0	0.109919	-0.650829
     29161.68	0.12799	1882004.0	1686344.0	3225043.0	0.109774	-0.648383
     29162.17	0.12018	1790173.0	1603549.0	3059007.0	0.110093	-0.645871
     29162.66	0.11968	1778065.0	1593395.0	3032376.0	0.109659	-0.643480
     29163.15	0.12438	1818908.0	1629533.0	3092156.0	0.109943	-0.640575
     29163.64	0.12046	1790534.0	1603960.0	3035523.0	0.110038	-0.637908
     29164.13	0.12634	1874199.0	1678789.0	3167427.0	0.110109	-0.634847
     29164.62	0.12265	1820211.0	1630312.0	3065565.0	0.110181	-0.631460
     29165.11	0.11604	1726269.0	1545855.0	2897552.0	0.110385	-0.628289
     29165.60	0.13385	1981398.0	1774220.0	3313362.0	0.110442	-0.624602
     29166.09	0.12619	1857898.0	1663895.0	3095924.0	0.110285	-0.620925
     29166.57	0.10733	1580769.0	1414968.0	2622930.0	0.110805	-0.617185
     29167.06	0.13417	1953973.0	1749122.0	3229456.0	0.110751	-0.613200
     29167.55	0.12307	1794920.0	1606590.0	2952246.0	0.110847	-0.608452
     29168.04	0.13881	2043875.0	1829576.0	3347425.0	0.110763	-0.604107
     29168.53	0.12154	1785517.0	1597810.0	2908358.0	0.111074	-0.598955
     29169.02	0.12899	1905714.0	1704806.0	3088441.0	0.111405	-0.594215
     29169.51	0.13132	1937854.0	1733402.0	3121982.0	0.111495	-0.588382
     29170.00	0.12485	1819192.0	1627514.0	2912150.0	0.111339	-0.581838
     29170.49	0.11479	1707807.0	1527360.0	2717548.0	0.111669	-0.576189
     29170.98	0.12338	1808836.0	1617234.0	2858214.0	0.111966	-0.569480
     29171.47	0.12507	1817855.0	1625031.0	2850622.0	0.112130	-0.562010
     29171.96	0.12683	1854256.0	1656923.0	2884827.0	0.112521	-0.554503
     29172.45	0.12637	1861626.0	1663359.0	2871437.0	0.112611	-0.545974
     29172.94	0.12565	1824866.0	1630363.0	2787300.0	0.112704	-0.536271
     29173.42	0.12847	1906117.0	1702350.0	2884482.0	0.113059	-0.527336
     29173.91	0.12381	1787742.0	1596088.0	2675100.0	0.113398	-0.516431
     29174.40	0.13404	1955813.0	1745678.0	2891767.0	0.113663	-0.504725
     29174.89	0.12475	1809001.0	1614371.0	2640744.0	0.113829	-0.492115
     29175.38	0.13062	1908266.0	1702273.0	2749343.0	0.114231	-0.479398
     29175.87	0.13451	1986237.0	1771025.0	2818137.0	0.114683	-0.464518
     29176.36	0.12435	1835019.0	1635691.0	2560631.0	0.114989	-0.448188
     29176.85	0.13791	2056037.0	1831808.0	2816367.0	0.115477	-0.430144
     29177.34	0.13149	1942141.0	1729218.0	2606508.0	0.116122	-0.410342
     29177.83	0.11044	1617084.0	1438866.0	2119363.0	0.116769	-0.387260
     29178.32	0.12338	1817003.0	1615860.0	2325821.0	0.117321	-0.364206
     29178.81	0.12646	1843134.0	1637899.0	2290799.0	0.118053	-0.335486
     29179.30	0.12130	1782116.0	1582355.0	2146647.0	0.118887	-0.304993
     29179.79	0.11956	1747579.0	1550491.0	2032361.0	0.119660	-0.270627
     29180.28	0.13278	1971405.0	1747185.0	2206857.0	0.120741	-0.233563
     29180.77	0.12309	1783356.0	1578890.0	1905376.0	0.121775	-0.187957
     29181.26	0.12031	1747804.0	1545626.0	1781350.0	0.122931	-0.141942
     29181.75	0.11039	1570265.0	1386866.0	1507641.0	0.124198	-0.0834997
     29182.24	0.11150	1644701.0	1450391.0	1492584.0	0.125725	-0.0286757
     29182.73	0.11973	1740271.0	1531917.0	1470688.0	0.127521	0.0407896
     29183.22	0.11178	1637926.0	1439071.0	1291957.0	0.129433	0.107840
     29183.71	0.12064	1759543.0	1543257.0	1285500.0	0.131159	0.182747
     29184.20	0.11016	1610511.0	1409210.0	1086409.0	0.133522	0.260152
     29184.68	0.13388	1965727.0	1715924.0	1223206.0	0.135910	0.338476
     29185.17	0.11257	1641478.0	1429164.0	938880.0	0.138507	0.420157
     29185.66	0.11827	1730075.0	1502056.0	912518.0	0.141330	0.498382
     29186.15	0.13253	1927948.0	1669020.0	940355.0	0.144220	0.573734
     29186.64	0.12201	1767503.0	1525585.0	803452.0	0.147190	0.641216
     29187.13	0.13050	1887360.0	1624727.0	804828.0	0.149839	0.702466
     29187.62	0.13282	1905964.0	1634883.0	764644.0	0.153417	0.759916
     29188.11	0.13048	1945067.0	1663653.0	746153.0	0.156281	0.801840
     29188.60	0.13274	1974255.0	1683558.0	729980.0	0.159282	0.835648
     29189.09	0.12413	1823479.0	1549218.0	652353.0	0.162996	0.864920
     29189.58	0.13278	1912433.0	1620003.0	671217.0	0.165948	0.881091
     29190.07	0.11206	1610014.0	1359307.0	558655.0	0.169268	0.889198
     29190.56	0.13433	1967853.0	1657124.0	679637.0	0.171860	0.891280
     29191.05	0.13291	1968562.0	1653618.0	682012.0	0.174338	0.885674
     29191.54	0.13976	2059010.0	1725474.0	718652.0	0.176723	0.875880
     29192.03	0.12677	1861770.0	1557287.0	657071.0	0.178582	0.862908
     29192.52	0.13551	1968745.0	1644413.0	704963.0	0.180013	0.846993
     29193.01	0.12955	1915079.0	1597288.0	696455.0	0.181452	0.830059
     29193.50	0.12952	1865296.0	1555227.0	690736.0	0.181798	0.811619
     29193.99	0.14106	2031415.0	1693166.0	764966.0	0.182132	0.794524
     29194.48	0.12606	1824524.0	1520793.0	698057.0	0.182087	0.778686
     29194.97	0.13648	1995346.0	1664537.0	775674.0	0.181270	0.763570
     29195.46	0.13497	1940827.0	1620364.0	767267.0	0.180463	0.747571
     29195.95	0.12051	1762075.0	1472641.0	705664.0	0.179435	0.735673
     29196.44	0.13839	2019121.0	1689471.0	819801.0	0.178247	0.723109
     29196.93	0.11146	1611208.0	1350292.0	661924.0	0.176663	0.712925
     29197.42	0.12693	1843056.0	1546819.0	765663.0	0.175224	0.703214
     29197.92	0.12821	1858179.0	1562131.0	779884.0	0.173546	0.694661
     29198.41	0.12669	1833721.0	1544062.0	776403.0	0.171931	0.687500
     29198.90	0.12379	1762671.0	1486375.0	752451.0	0.170490	0.680760
     29199.39	0.12616	1821301.0	1537907.0	781821.0	0.169129	0.676552
     29199.88	0.13001	1886913.0	1595058.0	813748.0	0.168032	0.673015
     29200.37	0.12251	1785441.0	1511510.0	773650.0	0.166556	0.669745
     29200.86	0.12174	1769975.0	1500150.0	769433.0	0.165400	0.667667
     29201.35	0.12129	1780801.0	1511507.0	776222.0	0.163956	0.666424
     29201.84	0.12821	1868980.0	1587861.0	815975.0	0.163005	0.665759
     29202.33	0.11993	1727798.0	1469068.0	754205.0	0.162220	0.666719
     29202.82	0.11867	1716306.0	1460229.0	749532.0	0.161581	0.666900
     29203.31	0.12909	1873770.0	1595503.0	817492.0	0.160763	0.668703
     29203.80	0.11176	1610574.0	1372317.0	701822.0	0.160090	0.670576
     29204.29	0.12786	1819553.0	1550806.0	790881.0	0.159816	0.673383
     29204.78	0.11849	1740986.0	1485065.0	754761.0	0.158993	0.676813
     29205.27	0.12092	1758896.0	1500831.0	760494.0	0.158667	0.679806
     29205.76	0.13393	1958107.0	1671115.0	844231.0	0.158487	0.682820
     29206.25	0.12766	1844468.0	1574457.0	792656.0	0.158280	0.686276
     29206.74	0.13297	1944161.0	1660388.0	833105.0	0.157779	0.689647
     29207.23	0.13155	1922420.0	1642420.0	821082.0	0.157414	0.693303
     29207.72	0.12890	1881149.0	1606979.0	801857.0	0.157527	0.695181
     29208.21	0.11903	1700239.0	1453264.0	722892.0	0.156957	0.698308
     29208.70	0.11756	1713347.0	1464521.0	727075.0	0.156921	0.700254
     29209.19	0.12214	1778353.0	1519806.0	753138.0	0.157105	0.702089
     29209.69	0.13802	2013730.0	1721392.0	851460.0	0.156855	0.703936
     29210.18	0.11505	1685731.0	1441267.0	712295.0	0.156677	0.704786
     29210.67	0.12166	1787946.0	1528400.0	754589.0	0.156846	0.705803
     29211.16	0.13354	1932825.0	1652473.0	815629.0	0.156710	0.706069
     29211.65	0.13224	1953946.0	1670605.0	824512.0	0.156665	0.706149
     29212.14	0.11236	1638746.0	1401321.0	692248.0	0.156516	0.705226
     29212.63	0.12975	1900903.0	1625284.0	803255.0	0.156646	0.704766
     29213.12	0.13121	1906686.0	1630525.0	807093.0	0.156465	0.703218
     29213.61	0.12934	1925727.0	1647011.0	816752.0	0.156341	0.701382
     29214.10	0.12621	1844601.0	1577618.0	784407.0	0.156347	0.698743
     29214.59	0.13519	1942422.0	1661373.0	828707.0	0.156291	0.695533
     29215.08	0.12844	1836311.0	1570328.0	785885.0	0.156474	0.692229
     29215.57	0.13026	1901661.0	1626888.0	817465.0	0.156059	0.688216
     29216.06	0.13574	1960169.0	1676259.0	845856.0	0.156466	0.683971
     29216.56	0.11849	1701861.0	1455184.0	737626.0	0.156590	0.679451
     29217.05	0.12190	1762854.0	1507906.0	768350.0	0.156212	0.674232
     29217.54	0.12624	1831727.0	1566839.0	801420.0	0.156199	0.670430
     29218.03	0.11576	1668365.0	1426856.0	733754.0	0.156371	0.665055
     29218.52	0.12490	1827827.0	1563274.0	806674.0	0.156345	0.661618
     29219.01	0.14115	2064234.0	1766178.0	914717.0	0.155941	0.657958
     29219.50	0.12672	1854621.0	1586097.0	824188.0	0.156404	0.654633
     29219.99	0.12779	1864664.0	1595068.0	830978.0	0.156165	0.652068
     29220.48	0.10808	1565613.0	1339357.0	698676.0	0.156088	0.650758
     29220.97	0.094155	1360916.0	1164619.0	608373.0	0.155764	0.649361
     29221.47	0.11146	1611684.0	1378817.0	720223.0	0.156054	0.649420
     29221.96	0.12270	1795310.0	1535629.0	801763.0	0.156238	0.649882
     29222.45	0.11931	1731930.0	1481416.0	771971.0	0.156238	0.651807
     29222.94	0.11670	1695191.0	1450130.0	753946.0	0.156142	0.654088
     29223.43	0.13003	1919696.0	1642565.0	852005.0	0.155908	0.656422
     29223.92	0.11546	1681681.0	1439161.0	743952.0	0.155734	0.659839
     29224.41	0.10348	1503230.0	1286435.0	662381.0	0.155741	0.663789
     29224.90	0.12501	1827412.0	1563485.0	802303.0	0.155983	0.667186
     29225.39	0.12188	1801061.0	1541957.0	787563.0	0.155324	0.671864
     29225.89	0.14291	2092306.0	1790887.0	911470.0	0.155556	0.675408
     29226.38	0.12477	1824593.0	1561786.0	791591.0	0.155527	0.679540
     29226.87	0.13381	1958340.0	1676468.0	846284.0	0.155408	0.683589
     29227.36	0.15299	2258911.0	1934154.0	972741.0	0.155213	0.687307
     29227.85	0.15255	2196498.0	1881079.0	942312.0	0.155019	0.691264
     29228.34	0.10076	1456434.0	1246927.0	622039.0	0.155309	0.695435
     29228.83	0.12578	1823235.0	1561304.0	775906.0	0.155091	0.699245
     29229.32	0.10708	1564876.0	1339837.0	663168.0	0.155259	0.703275
     29229.81	0.13074	1889339.0	1617319.0	797770.0	0.155457	0.706705
     29230.31	0.14636	2126995.0	1821020.0	894519.0	0.155313	0.710866
     29230.80	0.14127	2056504.0	1760794.0	861283.0	0.155243	0.715097
     29231.29	0.13468	1976856.0	1692536.0	824522.0	0.155280	0.719179
     29231.78	0.13783	2006291.0	1717453.0	834134.0	0.155445	0.722204
     29232.27	0.10484	1516084.0	1297487.0	627049.0	0.155701	0.727160
     29232.76	0.12939	1886446.0	1614082.0	777464.0	0.155928	0.730484
     29233.25	0.14209	2062180.0	1764122.0	846573.0	0.156111	0.734212
     29233.75	0.13076	1893313.0	1619800.0	774492.0	0.156026	0.737851
     29234.24	0.13792	1990732.0	1702624.0	811749.0	0.156332	0.740735
     29234.73	0.13540	1946505.0	1664269.0	791233.0	0.156649	0.743549
     29235.22	0.19517	2878528.0	2461371.0	1167321.0	0.156561	0.746007
     29235.71	0.083480	1206828.0	1031921.0	488216.0	0.156573	0.748419
     29236.20	0.090465	1310375.0	1120004.0	529236.0	0.156981	0.749653
     29236.69	0.12178	1790143.0	1529984.0	722222.0	0.157038	0.750680
     29237.19	0.12713	1874840.0	1602237.0	755942.0	0.157123	0.751191
     29237.68	0.12438	1815567.0	1551169.0	731564.0	0.157389	0.751579
     29238.17	0.12252	1795479.0	1533458.0	723829.0	0.157747	0.750725
     29238.66	0.12497	1805970.0	1542703.0	728713.0	0.157562	0.750011
     29239.15	0.14489	2106699.0	1799942.0	851486.0	0.157368	0.748527
     29239.64	0.11098	1619765.0	1383396.0	655826.0	0.157740	0.746401
     29240.14	0.12293	1805829.0	1542082.0	732679.0	0.157886	0.744181
     29240.63	0.11296	1641231.0	1400980.0	667280.0	0.158275	0.741718
     29241.12	0.12545	1840467.0	1571294.0	750865.0	0.158120	0.738429
     29241.61	0.11307	1652321.0	1410598.0	676118.0	0.158167	0.735401
     29242.10	0.12270	1778658.0	1518489.0	730596.0	0.158143	0.731610
     29242.59	0.11667	1700066.0	1451011.0	700586.0	0.158407	0.728099
     29243.09	0.13357	1941315.0	1657243.0	803793.0	0.158210	0.723569
     29243.58	0.10179	1453946.0	1240901.0	604184.0	0.158444	0.719714
     29244.07	0.13269	1917944.0	1637349.0	800049.0	0.158175	0.716161
     29244.56	0.12256	1752133.0	1495262.0	734202.0	0.158532	0.711273
     29245.05	0.13918	1998527.0	1705466.0	840791.0	0.158572	0.707251
     29245.55	0.12308	1753906.0	1496710.0	740669.0	0.158576	0.703471
     29246.04	0.14032	2030229.0	1732275.0	861117.0	0.158713	0.698960
     29246.53	0.12489	1795897.0	1531990.0	764448.0	0.158937	0.695169
     29247.02	0.12990	1873703.0	1599165.0	800785.0	0.158435	0.691644
     29247.51	0.11698	1676438.0	1429972.0	719106.0	0.159016	0.687401
     29248.00	0.13090	1921682.0	1639009.0	826315.0	0.159109	0.684871
     29248.50	0.11431	1676216.0	1429664.0	723210.0	0.159099	0.681495
     29248.99	0.11965	1774710.0	1513590.0	767896.0	0.159153	0.678585
     29249.48	0.13262	1894311.0	1615104.0	821898.0	0.159456	0.675538
     29249.97	0.13201	1922884.0	1640057.0	836520.0	0.159095	0.673236
     29250.46	0.12715	1852492.0	1579445.0	807863.0	0.159458	0.670436
     29250.96	0.12499	1784119.0	1520880.0	779467.0	0.159636	0.668434
     29251.45	0.12680	1844272.0	1572404.0	807240.0	0.159479	0.666740
     29251.94	0.12565	1797255.0	1531920.0	787773.0	0.159739	0.665067
     29252.43	0.13047	1896439.0	1616570.0	831651.0	0.159671	0.664649
     29252.92	0.12881	1861661.0	1586844.0	817138.0	0.159722	0.663694
     29253.42	0.13940	2040720.0	1739096.0	896439.0	0.159937	0.662690
     29253.91	0.12327	1771012.0	1509505.0	778045.0	0.159769	0.662753
     29254.40	0.14456	2094593.0	1785176.0	920029.0	0.159842	0.662867
     29254.89	0.10338	1478344.0	1260169.0	649122.0	0.159677	0.663380
     29255.39	0.12986	1869575.0	1593145.0	820418.0	0.160001	0.663651
     29255.88	0.12301	1756180.0	1497224.0	770342.0	0.159528	0.664533
     29256.37	0.12091	1739616.0	1482965.0	762133.0	0.159621	0.665678
     29256.86	0.13122	1907615.0	1625605.0	834752.0	0.159974	0.666501
     29257.35	0.11953	1730933.0	1475680.0	756154.0	0.159542	0.668629
     29257.85	0.13297	1913536.0	1631095.0	834710.0	0.159701	0.669922
     29258.34	0.16976	2417094.0	2061109.0	1052765.0	0.159322	0.671824
     29258.83	0.11665	1683831.0	1435768.0	731726.0	0.159372	0.674049
     29259.32	0.090150	1325903.0	1131102.0	574986.0	0.158901	0.676602
     29259.82	0.11556	1657154.0	1413818.0	717627.0	0.158808	0.678099
     29260.31	0.089614	1289655.0	1100200.0	556845.0	0.158883	0.680960
     29260.80	0.11783	1704787.0	1454387.0	734248.0	0.158856	0.683493
     29261.29	0.14634	2093218.0	1786718.0	898774.0	0.158322	0.687104
     29261.79	0.15828	2260478.0	1929774.0	968075.0	0.158173	0.689849
     29262.28	0.12061	1698976.0	1450240.0	725034.0	0.158297	0.693266
     29262.77	0.098444	1395009.0	1191550.0	593886.0	0.157646	0.696323
     29263.26	0.078939	1122468.0	958797.0	476091.0	0.157606	0.700070
     29263.75	0.11836	1686872.0	1441434.0	713606.0	0.157237	0.703063
     29264.25	0.11618	1683785.0	1439087.0	709874.0	0.157035	0.706677
     29264.74	0.13418	1905594.0	1628420.0	800802.0	0.157184	0.709752
     29265.23	0.14162	2023688.0	1730150.0	847809.0	0.156713	0.713308
     29265.72	0.14150	2066565.0	1767190.0	862952.0	0.156497	0.716787
     29266.22	0.13740	1965096.0	1680924.0	818563.0	0.156197	0.719549
     29266.71	0.12406	1774399.0	1517594.0	736940.0	0.156336	0.722375
     29267.20	0.11399	1613653.0	1380683.0	668416.0	0.155922	0.725423
     29267.70	0.12045	1722103.0	1473202.0	711323.0	0.156108	0.728067
     29268.19	0.13721	1932668.0	1653986.0	796664.0	0.155713	0.730510
     29268.68	0.12153	1765012.0	1510881.0	726002.0	0.155465	0.732895
     29269.17	0.13915	2016915.0	1726366.0	828175.0	0.155550	0.734549
     29269.67	0.12526	1804296.0	1544530.0	739643.0	0.155451	0.736307
     29270.16	0.13409	1922965.0	1646454.0	787735.0	0.155244	0.737217
     29270.65	0.13178	1879820.0	1609492.0	769129.0	0.155257	0.738415
     29271.14	0.13208	1916769.0	1641775.0	784008.0	0.154863	0.739114
     29271.64	0.13217	1890330.0	1618787.0	772575.0	0.155074	0.739703
     29272.13	0.13525	1938218.0	1660095.0	792225.0	0.154894	0.739785
     29272.62	0.13035	1851448.0	1586297.0	757147.0	0.154566	0.739600
     29273.11	0.13547	1961295.0	1680306.0	802201.0	0.154629	0.739372
     29273.61	0.13598	1985168.0	1700714.0	812942.0	0.154655	0.738144
     29274.10	0.11607	1678549.0	1437804.0	688077.0	0.154813	0.736971
     29274.59	0.12521	1788301.0	1532423.0	733996.0	0.154416	0.736102
     29275.09	0.11928	1718622.0	1472448.0	705952.0	0.154596	0.735134
     29275.58	0.13610	1983477.0	1699876.0	816513.0	0.154296	0.733268
     29276.07	0.12853	1865600.0	1598760.0	769354.0	0.154354	0.731432
     29276.56	0.12017	1703658.0	1459873.0	703837.0	0.154428	0.729558
     29277.06	0.14060	1994490.0	1709573.0	825526.0	0.154145	0.727978
     29277.55	0.11675	1647080.0	1411335.0	682755.0	0.154468	0.726155
     29278.04	0.12223	1746007.0	1496324.0	725475.0	0.154320	0.723940
     29278.54	0.11409	1633528.0	1399783.0	680021.0	0.154425	0.721949
     29279.03	0.13331	1888343.0	1618103.0	787550.0	0.154445	0.720083
     29279.52	0.11795	1707435.0	1463195.0	713640.0	0.154370	0.717999
     29280.02	0.12004	1715347.0	1470120.0	718463.0	0.154271	0.715985
     29280.51	0.12301	1736695.0	1488749.0	728940.0	0.154048	0.714100
     29281.00	0.11917	1706527.0	1462999.0	717280.0	0.153972	0.712777
     29281.49	0.11995	1736473.0	1488646.0	731353.0	0.153989	0.710726
     29281.99	0.11720	1654676.0	1418591.0	698271.0	0.153941	0.708812
     29282.48	0.12171	1757198.0	1506313.0	742705.0	0.154056	0.707121
     29282.97	0.13109	1863568.0	1597328.0	788817.0	0.154161	0.705553
     29283.47	0.13532	1927684.0	1652811.0	817399.0	0.153842	0.704105
     29283.96	0.12781	1823165.0	1563319.0	774120.0	0.153763	0.702840
     29284.45	0.12881	1873413.0	1606757.0	796672.0	0.153544	0.701530
     29284.95	0.14035	2003956.0	1717775.0	853085.0	0.154093	0.699926
     29285.44	0.12346	1793077.0	1537246.0	764276.0	0.153941	0.698819
     29285.93	0.12802	1817570.0	1558024.0	775211.0	0.154082	0.698038
     29286.43	0.11408	1615316.0	1384887.0	689651.0	0.153912	0.697188
     29286.92	0.12810	1879229.0	1611582.0	803365.0	0.153645	0.696162
     29287.41	0.12313	1780421.0	1526767.0	761996.0	0.153697	0.694966
     29287.91	0.12232	1778104.0	1524867.0	761101.0	0.153640	0.694896
     29288.40	0.15127	2185585.0	1874109.0	936310.0	0.153750	0.693942
     29288.89	0.12435	1810287.0	1552145.0	776193.0	0.153848	0.692992
     29289.39	0.11069	1615671.0	1385564.0	693120.0	0.153643	0.692659
     29289.88	0.12168	1783814.0	1529470.0	765068.0	0.153832	0.692712
     29290.37	0.13055	1932065.0	1657117.0	829319.0	0.153510	0.692230
     29290.87	0.13227	1948231.0	1670783.0	836419.0	0.153629	0.691918
     29291.36	0.12620	1863139.0	1597905.0	800083.0	0.153569	0.691733
     29291.85	0.13439	1960123.0	1680917.0	841388.0	0.153668	0.692042
     29292.35	0.13502	1973615.0	1692503.0	847259.0	0.153658	0.691957
     29292.84	0.11832	1744724.0	1496591.0	749375.0	0.153407	0.691706
     29293.33	0.12074	1780265.0	1526730.0	764342.0	0.153634	0.691868
     29293.83	0.12666	1879536.0	1611621.0	806878.0	0.153784	0.691823
     29294.32	0.12200	1801405.0	1544888.0	773697.0	0.153616	0.691526
     29294.81	0.12425	1824990.0	1565180.0	783220.0	0.153574	0.692342
     29295.31	0.12504	1842741.0	1580339.0	790878.0	0.153615	0.692251
     29295.80	0.13606	2003247.0	1717638.0	858887.0	0.153819	0.693068
     29296.29	0.12692	1856890.0	1592190.0	796187.0	0.153793	0.693032
     29296.79	0.11140	1644458.0	1409782.0	704370.0	0.153976	0.693887
     29297.28	0.11903	1759520.0	1508751.0	753614.0	0.153759	0.694157
     29297.77	0.10112	1472937.0	1262508.0	630234.0	0.154158	0.694764
     29298.27	0.11459	1689165.0	1448389.0	722307.0	0.153782	0.695757
     29298.76	0.12070	1769482.0	1517264.0	756428.0	0.153778	0.696057
     29299.26	0.14096	2085239.0	1787745.0	890516.0	0.153928	0.696909
     29299.75	0.11578	1721986.0	1476014.0	734731.0	0.154133	0.697596
     29300.24	0.14319	2108804.0	1808036.0	899614.0	0.153880	0.698031
     29300.74	0.10689	1569767.0	1345737.0	668970.0	0.153985	0.698958
     29301.23	0.095559	1390556.0	1192133.0	591839.0	0.153960	0.700265
     29301.72	0.11414	1663905.0	1426862.0	707993.0	0.153690	0.700799
     29302.22	0.12449	1833919.0	1572035.0	779226.0	0.154084	0.701825
     29302.71	0.13645	2019679.0	1731988.0	857736.0	0.153669	0.702729
     29303.21	0.16232	2388075.0	2046461.0	1012666.0	0.154376	0.703526
     29303.70	0.18101	2648189.0	2270068.0	1122611.0	0.154066	0.704153
     29304.19	0.075659	1074164.0	921004.0	454891.0	0.153834	0.705407
     29304.69	0.091898	1327053.0	1137565.0	561646.0	0.154071	0.705774
     29305.18	0.13743	2013868.0	1726352.0	851429.0	0.154047	0.706850
     29305.67	0.11864	1706107.0	1462136.0	720424.0	0.154316	0.707814
     29306.17	0.13329	1916211.0	1642330.0	808606.0	0.154234	0.708559
     29306.66	0.15049	2187742.0	1875502.0	922598.0	0.153994	0.709438
     29307.16	0.12552	1810817.0	1551905.0	763081.0	0.154295	0.709874
     29307.65	0.17057	2483834.0	2128761.0	1046042.0	0.154263	0.710527
     29308.14	0.089040	1284927.0	1101465.0	541050.0	0.154061	0.710885
     29308.64	0.11371	1608928.0	1379207.0	676806.0	0.154059	0.711879
     29309.13	0.13306	1927267.0	1652269.0	810303.0	0.153953	0.712497
     29309.63	0.14304	2054714.0	1761413.0	863482.0	0.154020	0.712899
     29310.12	0.11795	1691474.0	1449816.0	710079.0	0.154164	0.713816
     29310.61	0.14866	2140810.0	1835238.0	898401.0	0.154010	0.714313
     29311.11	0.12894	1881155.0	1612687.0	789036.0	0.153984	0.714845
     29311.60	0.14033	2006353.0	1719491.0	841390.0	0.154290	0.714728
     29312.10	0.12087	1734064.0	1486397.0	726832.0	0.154113	0.715415
     29312.59	0.11776	1701786.0	1458875.0	712851.0	0.154013	0.716148
     29313.08	0.13705	1967792.0	1686486.0	824516.0	0.154265	0.715606
     29313.58	0.11540	1651343.0	1415395.0	691767.0	0.154180	0.715915
     29314.07	0.12763	1828174.0	1567082.0	765623.0	0.154102	0.716281
     29314.57	0.12461	1804562.0	1546706.0	755622.0	0.154190	0.716342
     29315.06	0.13046	1887985.0	1618488.0	790349.0	0.154018	0.716773
     29315.56	0.12914	1850848.0	1586557.0	774849.0	0.154078	0.716653
     29316.05	0.11873	1717876.0	1472083.0	718873.0	0.154410	0.716749
     29316.54	0.12124	1742297.0	1493547.0	729319.0	0.154051	0.716798
     29317.04	0.12484	1803015.0	1545376.0	754886.0	0.154193	0.716456
     29317.53	0.13018	1826764.0	1565841.0	765146.0	0.154123	0.716112
     29318.03	0.11241	1594243.0	1366820.0	667698.0	0.153912	0.716406
     29318.52	0.12667	1802086.0	1544975.0	754620.0	0.153937	0.716549
     29319.02	0.12336	1783449.0	1528837.0	746395.0	0.154042	0.717008
     29319.51	0.12267	1733931.0	1486293.0	726030.0	0.154106	0.716449
     29320.00	0.12819	1856656.0	1591454.0	777515.0	0.154129	0.716300
     29320.50	0.11852	1719908.0	1474489.0	720397.0	0.153959	0.716264
     29320.99	0.12491	1783696.0	1528948.0	747385.0	0.154108	0.715755
     29321.49	0.11663	1685602.0	1445084.0	706354.0	0.153955	0.715806
     29321.98	0.12333	1771315.0	1518367.0	742712.0	0.154087	0.715082
     29322.48	0.14442	2071936.0	1776116.0	868838.0	0.154054	0.715028
     29322.97	0.12651	1821791.0	1561818.0	764285.0	0.153970	0.714665
     29323.47	0.12073	1692861.0	1450479.0	710025.0	0.154526	0.714349
     29323.96	0.13793	1954766.0	1675410.0	820543.0	0.154213	0.713847
     29324.45	0.12745	1800553.0	1543116.0	756078.0	0.154290	0.713414
     29324.95	0.11334	1607643.0	1377909.0	675355.0	0.154202	0.713084
     29325.44	0.12872	1836926.0	1574334.0	771834.0	0.154261	0.712818
     29325.94	0.12858	1862904.0	1596653.0	783278.0	0.154227	0.712177
     29326.43	0.12022	1731118.0	1483696.0	728287.0	0.154231	0.711596
     29326.93	0.13096	1876174.0	1608133.0	789628.0	0.154161	0.711267
     29327.42	0.11559	1650825.0	1415121.0	695080.0	0.154060	0.710943
     29327.92	0.13039	1854081.0	1589348.0	781258.0	0.154065	0.710174
     29328.41	0.12300	1755117.0	1504835.0	740229.0	0.153852	0.709479
     29328.91	0.12952	1839313.0	1576825.0	776052.0	0.153979	0.708949
     29329.40	0.13129	1878029.0	1610384.0	792860.0	0.153750	0.708581
     29329.89	0.12781	1846826.0	1583559.0	780126.0	0.153794	0.707975
     29330.39	0.14260	2045376.0	1753878.0	864477.0	0.153752	0.707460
     29330.88	0.13674	1927259.0	1652472.0	814980.0	0.153826	0.706864
     29331.38	0.12209	1772866.0	1520749.0	750358.0	0.153394	0.706408
     29331.87	0.11135	1575203.0	1350906.0	666977.0	0.153609	0.705775
     29332.37	0.12325	1767291.0	1515518.0	748182.0	0.153691	0.705866
     29332.86	0.12458	1790174.0	1535393.0	758616.0	0.153526	0.705046
     29333.36	0.12627	1825940.0	1566068.0	773927.0	0.153527	0.704846
     29333.85	0.12321	1720477.0	1475586.0	729990.0	0.153546	0.703780
     29334.35	0.12346	1786407.0	1532981.0	758362.0	0.152992	0.703809
     29334.84	0.13065	1860140.0	1595693.0	789500.0	0.153344	0.703664
     29335.34	0.11528	1602392.0	1374855.0	680744.0	0.153149	0.702917
     29335.83	0.10980	1593409.0	1366832.0	676907.0	0.153380	0.702717
     29336.33	0.12502	1791073.0	1536760.0	761561.0	0.153139	0.702061
     29336.82	0.11930	1690361.0	1450620.0	719251.0	0.152951	0.701536
     29337.32	0.11117	1570178.0	1347819.0	668194.0	0.152701	0.701664
     29337.81	0.11463	1626081.0	1395889.0	692369.0	0.152641	0.701168
     29338.31	0.12370	1750397.0	1502188.0	745542.0	0.152920	0.700567
     29338.80	0.13107	1874601.0	1609316.0	798377.0	0.152587	0.700984
     29339.30	0.12490	1767275.0	1517103.0	753398.0	0.152636	0.699964
     29339.79	0.096847	1399442.0	1201325.0	596601.0	0.152648	0.699932
     29340.29	0.11680	1679442.0	1441664.0	716102.0	0.152664	0.699731
     29340.78	0.12480	1787628.0	1534939.0	762551.0	0.152399	0.699577
     29341.28	0.13583	1912086.0	1641484.0	815879.0	0.152594	0.699090
     29341.77	0.12516	1779590.0	1528135.0	759478.0	0.152335	0.699172
     29342.27	0.14738	2084115.0	1789650.0	889866.0	0.152324	0.698704
     29342.76	0.16144	2317576.0	1990261.0	989947.0	0.152256	0.698370
     29343.26	0.11081	1601204.0	1374602.0	683426.0	0.152592	0.698801
     29343.75	0.090069	1302759.0	1119249.0	556613.0	0.151826	0.698543
     29344.25	0.13140	1882427.0	1617116.0	804220.0	0.151918	0.698527
     29344.74	0.13382	1938630.0	1665690.0	828547.0	0.151742	0.698321
     29345.24	0.12987	1867363.0	1604230.0	798038.0	0.151883	0.698243
     29345.73	0.13414	1937598.0	1664458.0	828086.0	0.151950	0.698138
     29346.23	0.12961	1854086.0	1592935.0	792496.0	0.151814	0.698146
     29346.72	0.14783	2200958.0	1891386.0	940846.0	0.151583	0.698286
     29347.22	0.11970	1752508.0	1505418.0	748983.0	0.151977	0.698110
     29347.72	0.12186	1780896.0	1530072.0	760746.0	0.151802	0.698771
     29348.21	0.12963	1913402.0	1644210.0	817897.0	0.151623	0.698279
     29348.71	0.14371	2093674.0	1799663.0	895268.0	0.151321	0.698232
     29349.20	0.12570	1827612.0	1570498.0	781274.0	0.151617	0.698222
     29349.70	0.13842	2019566.0	1735668.0	863280.0	0.151490	0.698409
     29350.19	0.13178	1909155.0	1640623.0	815754.0	0.151585	0.698718
     29350.69	0.14199	2051843.0	1763180.0	876815.0	0.151619	0.698578
     29351.18	0.11880	1722583.0	1480627.0	735911.0	0.151359	0.699112
     29351.68	0.12264	1787125.0	1535825.0	763368.0	0.151540	0.699083
     29352.17	0.12672	1830193.0	1573748.0	781847.0	0.150961	0.699556
     29352.67	0.12459	1816660.0	1561536.0	775769.0	0.151330	0.699570
     29353.16	0.12370	1786824.0	1535892.0	762872.0	0.151328	0.699776
     29353.66	0.12888	1868369.0	1606067.0	797852.0	0.151278	0.699620
     29354.16	0.12654	1836427.0	1578458.0	783929.0	0.151373	0.699885
     29354.65	0.13110	1905699.0	1638597.0	813548.0	0.151008	0.700191
     29355.15	0.11919	1742795.0	1498023.0	743596.0	0.151344	0.700404
     29355.64	0.13126	1896460.0	1630034.0	808815.0	0.151388	0.700786
     29356.14	0.12020	1766565.0	1518801.0	753527.0	0.151116	0.700912
     29356.63	0.13135	1907327.0	1640054.0	813602.0	0.150974	0.701013
     29357.13	0.12205	1766457.0	1518775.0	753247.0	0.151072	0.701266
     29357.63	0.11645	1693643.0	1456117.0	722169.0	0.151109	0.701269
     29358.12	0.13052	1831207.0	1574111.0	780357.0	0.151285	0.701694
     29358.62	0.10793	1548538.0	1331605.0	659852.0	0.150926	0.702125
     29359.11	0.13415	1954645.0	1680483.0	832060.0	0.151127	0.702932
     29359.61	0.11459	1671081.0	1436978.0	711893.0	0.150928	0.702370
     29360.10	0.12288	1792984.0	1541659.0	763752.0	0.151022	0.702371
     29360.60	0.11483	1659413.0	1427334.0	706525.0	0.150656	0.703205
     29361.09	0.13253	1928551.0	1658689.0	821149.0	0.150741	0.703078
     29361.59	0.12271	1770220.0	1522623.0	753654.0	0.150669	0.703256
     29362.09	0.13469	1955580.0	1682223.0	832409.0	0.150571	0.703548
     29362.58	0.12609	1829598.0	1573990.0	778758.0	0.150482	0.703669
     29363.08	0.12583	1829111.0	1573717.0	778203.0	0.150390	0.704208
     29363.57	0.12432	1821587.0	1567062.0	775098.0	0.150506	0.703968
     29364.07	0.13095	1904229.0	1638343.0	810022.0	0.150392	0.704379
     29364.57	0.13215	1931303.0	1661899.0	821738.0	0.150234	0.704295
     29365.06	0.11853	1727830.0	1486522.0	734832.0	0.150427	0.704553
     29365.56	0.11806	1718956.0	1479252.0	731084.0	0.150181	0.704763
     29366.05	0.13133	1925626.0	1657003.0	819003.0	0.150241	0.704678
     29366.55	0.12070	1774532.0	1526771.0	754484.0	0.150382	0.704876
     29367.05	0.12041	1786760.0	1537791.0	760270.0	0.150057	0.704429
     29367.54	0.13099	1922409.0	1654444.0	817718.0	0.150114	0.704703
     29368.04	0.12835	1898835.0	1634560.0	807855.0	0.149867	0.704746
     29368.53	0.13670	2015521.0	1735176.0	857459.0	0.149769	0.704891
     29369.03	0.12290	1782397.0	1533986.0	758497.0	0.150090	0.704286
     29369.53	0.13420	1962037.0	1688617.0	834794.0	0.150073	0.704480
     29370.02	0.13168	1939001.0	1669195.0	825239.0	0.149831	0.704424
     29370.52	0.11958	1735496.0	1493728.0	738407.0	0.150018	0.704535
     29371.01	0.13244	1925714.0	1657762.0	819894.0	0.149828	0.704049
     29371.51	0.13374	1969059.0	1695360.0	838507.0	0.149661	0.704027
     29372.01	0.12208	1778033.0	1530874.0	757282.0	0.149669	0.703858
     29372.50	0.12827	1902105.0	1637407.0	809987.0	0.149847	0.703851
     29373.00	0.12763	1868904.0	1609070.0	796323.0	0.149696	0.703407
     29373.49	0.11902	1727616.0	1487333.0	736237.0	0.149758	0.703188
     29373.99	0.13260	1916308.0	1649927.0	816877.0	0.149669	0.702998
     29374.49	0.11538	1684353.0	1449927.0	717897.0	0.149868	0.702942
     29374.98	0.12976	1862496.0	1603300.0	794288.0	0.149854	0.702373
     29375.48	0.12493	1832263.0	1577714.0	782043.0	0.149575	0.701823
     29375.98	0.11133	1618620.0	1393504.0	690822.0	0.149752	0.701695
     29376.47	0.13518	1959452.0	1687369.0	836787.0	0.149494	0.701356
     29376.97	0.10597	1517100.0	1306404.0	648279.0	0.149522	0.700712
     29377.46	0.11455	1677377.0	1443899.0	716679.0	0.149884	0.700474
     29377.96	0.12786	1849722.0	1592651.0	790681.0	0.149635	0.700261
     29378.46	0.11954	1754268.0	1510517.0	750041.0	0.149600	0.700079
     29378.95	0.11607	1689084.0	1454168.0	722734.0	0.149752	0.699148
     29379.45	0.10702	1558064.0	1341790.0	666833.0	0.149439	0.699220
     29379.95	0.12086	1748330.0	1505207.0	748844.0	0.149731	0.698155
     29380.44	0.12329	1739344.0	1497195.0	745005.0	0.149915	0.697958
     29380.94	0.10783	1577186.0	1358294.0	675875.0	0.149413	0.697977
     29381.44	0.13214	1919859.0	1652631.0	822835.0	0.149883	0.697368
     29381.93	0.12537	1800610.0	1550700.0	772883.0	0.149419	0.696334
     29382.43	0.13840	1974396.0	1700151.0	847594.0	0.149545	0.696071
     29382.93	0.13339	1944613.0	1674577.0	835188.0	0.149502	0.695659
     29383.42	0.13612	1975042.0	1701006.0	848684.0	0.149370	0.695288
     29383.92	0.11495	1675456.0	1442585.0	720188.0	0.149649	0.694680
     29384.41	0.12915	1887218.0	1625174.0	811946.0	0.149489	0.693936
     29384.91	0.12394	1801364.0	1551410.0	775067.0	0.149380	0.693970
     29385.41	0.12580	1809076.0	1558361.0	779131.0	0.149182	0.693211
     29385.90	0.13215	1921048.0	1654117.0	827305.0	0.149604	0.692849
     29386.40	0.12885	1854066.0	1596366.0	799041.0	0.149651	0.692073
     29386.90	0.12900	1881629.0	1620608.0	811758.0	0.149337	0.691354
     29387.39	0.13297	1935789.0	1667016.0	835760.0	0.149480	0.690449
     29387.89	0.13264	1920684.0	1654037.0	828806.0	0.149462	0.690988
     29388.39	0.12522	1840752.0	1585547.0	795068.0	0.149245	0.690257
     29388.88	0.13218	1940048.0	1671392.0	838375.0	0.149056	0.689947
     29389.38	0.13131	1920684.0	1654252.0	830401.0	0.149332	0.689196
     29389.88	0.13445	1941875.0	1672841.0	839775.0	0.149131	0.689145
     29390.37	0.13616	1989076.0	1713119.0	860971.0	0.149355	0.688010
     29390.87	0.14054	2056089.0	1771172.0	890025.0	0.149164	0.688147
     29391.37	0.12528	1811933.0	1561033.0	784914.0	0.149046	0.687529
     29391.87	0.13449	1964763.0	1693084.0	851405.0	0.148820	0.687419
     29392.36	0.12064	1784404.0	1537307.0	773348.0	0.149052	0.687058
     29392.86	0.13092	1916952.0	1650939.0	831062.0	0.149392	0.686395
     29393.36	0.12010	1752772.0	1509898.0	760947.0	0.149156	0.685234
     29393.85	0.13103	1902838.0	1639492.0	826173.0	0.148960	0.685338
     29394.35	0.12447	1804692.0	1555208.0	783742.0	0.148781	0.685285
     29394.85	0.12621	1854264.0	1597921.0	805643.0	0.148784	0.684818
     29395.34	0.13280	1915230.0	1649936.0	832286.0	0.149101	0.684316
     29395.84	0.11803	1723653.0	1485159.0	749429.0	0.148924	0.683966
     29396.34	0.12730	1829600.0	1576405.0	795801.0	0.148950	0.683553
     29396.83	0.12235	1759789.0	1516581.0	765513.0	0.148735	0.683668
     29397.33	0.12572	1814251.0	1563711.0	789566.0	0.148611	0.683334
     29397.83	0.12159	1784370.0	1537831.0	776767.0	0.148692	0.682988
     29398.33	0.12875	1874226.0	1615766.0	816410.0	0.148387	0.682648
     29398.82	0.12716	1825970.0	1573940.0	795422.0	0.148529	0.682465
     29399.32	0.12074	1741544.0	1501163.0	759047.0	0.148532	0.681932
     29399.82	0.11797	1714742.0	1477771.0	747204.0	0.148728	0.681952
     29400.31	0.10855	1580280.0	1361859.0	688572.0	0.148751	0.681986
     29400.81	0.12358	1811039.0	1560835.0	789433.0	0.148680	0.681661
     29401.31	0.11642	1690339.0	1457367.0	737479.0	0.148298	0.681149
     29401.80	0.12826	1860912.0	1604156.0	812033.0	0.148469	0.680812
     29402.30	0.12720	1858123.0	1601655.0	810698.0	0.148529	0.680897
     29402.80	0.12427	1802149.0	1553744.0	786557.0	0.148312	0.680758
     29403.30	0.12735	1875413.0	1616931.0	818750.0	0.148299	0.680506
     29403.79	0.13317	1946731.0	1678420.0	849640.0	0.148299	0.680795
     29404.29	0.12899	1869591.0	1612018.0	816230.0	0.148233	0.680546
     29404.79	0.12858	1864508.0	1607822.0	813817.0	0.148117	0.680900
     29405.29	0.12111	1766517.0	1523158.0	770801.0	0.148224	0.681111
     29405.78	0.12516	1811020.0	1561799.0	790682.0	0.148052	0.680698
     29406.28	0.12393	1819348.0	1568894.0	794223.0	0.148107	0.680762
     29406.78	0.12864	1897049.0	1635617.0	828262.0	0.148279	0.680446
     29407.27	0.12554	1834466.0	1582349.0	801319.0	0.147843	0.680407
     29407.77	0.12997	1913646.0	1650868.0	835832.0	0.147709	0.680629
     29408.27	0.11851	1734338.0	1495724.0	757315.0	0.148015	0.680586
     29408.77	0.13049	1895514.0	1634909.0	827589.0	0.147903	0.680826
     29409.26	0.13082	1899356.0	1638345.0	829748.0	0.147828	0.680320
     29409.76	0.12476	1844445.0	1590607.0	804970.0	0.148063	0.681066
     29410.26	0.13356	1943571.0	1676359.0	848612.0	0.147903	0.680777
     29410.76	0.12783	1846650.0	1592964.0	806393.0	0.147777	0.680780
     29411.25	0.12719	1823985.0	1573357.0	796652.0	0.147812	0.680549
     29411.75	0.13576	1976403.0	1705839.0	863151.0	0.147221	0.681223
     29412.25	0.12069	1743035.0	1504194.0	761324.0	0.147371	0.680953
     29412.75	0.12937	1861700.0	1606255.0	812594.0	0.147585	0.681429
     29413.24	0.12631	1837040.0	1585535.0	802364.0	0.147234	0.681115
     29413.74	0.12754	1835090.0	1583595.0	801181.0	0.147396	0.681366
     29414.24	0.12378	1789495.0	1543995.0	781047.0	0.147560	0.681493
     29414.74	0.12340	1773683.0	1530872.0	774315.0	0.147221	0.681614
     29415.23	0.13143	1877024.0	1620052.0	819397.0	0.147229	0.681645
     29415.73	0.15082	2184041.0	1885060.0	953402.0	0.147217	0.681678
     29416.23	0.10720	1522981.0	1314163.0	664975.0	0.147470	0.681206
     29416.73	0.11472	1675280.0	1445727.0	730991.0	0.147368	0.681966
     29417.22	0.10914	1609291.0	1389430.0	702388.0	0.146900	0.682163
     29417.72	0.12821	1837493.0	1586139.0	801867.0	0.147099	0.682115
     29418.22	0.11231	1646586.0	1421430.0	718175.0	0.147041	0.682705
     29418.72	0.11331	1657101.0	1430513.0	722962.0	0.147037	0.682432
     29419.22	0.11722	1659764.0	1433343.0	724134.0	0.146666	0.682788
     29419.71	0.12374	1795850.0	1549670.0	782905.0	0.147436	0.682786
     29420.21	0.11610	1682072.0	1452404.0	733542.0	0.146806	0.683091
     29420.71	0.099394	1442483.0	1245337.0	629029.0	0.146960	0.682984
     29421.21	0.12362	1779004.0	1535813.0	775629.0	0.146994	0.683141
     29421.70	0.12804	1852388.0	1599509.0	808261.0	0.146779	0.682567
     29422.20	0.13014	1873377.0	1617682.0	816902.0	0.146748	0.683230
     29422.70	0.11041	1581301.0	1365143.0	689475.0	0.146989	0.683084
     29423.20	0.12793	1841148.0	1590112.0	803288.0	0.146585	0.682846
     29423.70	0.16016	2322814.0	2006360.0	1012971.0	0.146457	0.683435
     29424.19	0.11475	1660985.0	1434820.0	724584.0	0.146371	0.683197
     29424.69	0.11695	1678932.0	1450084.0	732087.0	0.146536	0.683477
     29425.19	0.13127	1905445.0	1645457.0	831312.0	0.146697	0.682768
     29425.69	0.13764	1948396.0	1682642.0	849595.0	0.146641	0.683361
     29426.19	0.13720	1981793.0	1712040.0	864347.0	0.146316	0.683467
     29426.68	0.12387	1784972.0	1541736.0	778484.0	0.146494	0.683316
     29427.18	0.12518	1807007.0	1560462.0	788002.0	0.146690	0.683237
     29427.68	0.14091	2054396.0	1774822.0	896281.0	0.146282	0.683201
     29428.18	0.12309	1771963.0	1530495.0	772728.0	0.146497	0.683419
     29428.68	0.10815	1565072.0	1352469.0	682794.0	0.146000	0.683494
     29429.17	0.14439	2093372.0	1808719.0	913215.0	0.146157	0.683403
     29429.67	0.13037	1890894.0	1633404.0	824684.0	0.146384	0.683421
     29430.17	0.13533	1967803.0	1700366.0	859035.0	0.146074	0.682789
     29430.67	0.13099	1873332.0	1618202.0	817462.0	0.146403	0.682867
     29431.17	0.13867	2005768.0	1733303.0	875671.0	0.145998	0.682794
     29431.66	0.13727	1988916.0	1718489.0	868364.0	0.146144	0.682590
     29432.16	0.12581	1812608.0	1565789.0	791283.0	0.146377	0.682489
     29432.66	0.12577	1792434.0	1548471.0	783083.0	0.146306	0.681785
     29433.16	0.13098	1894816.0	1637224.0	827469.0	0.146120	0.682386
     29433.66	0.12592	1795106.0	1551194.0	784337.0	0.146039	0.681941
     29434.16	0.12573	1789685.0	1546718.0	782114.0	0.145904	0.681890
     29434.65	0.12788	1865384.0	1612039.0	815249.0	0.145967	0.681762
     29435.15	0.12219	1747405.0	1510131.0	764244.0	0.145935	0.681065
     29435.65	0.12742	1808253.0	1562346.0	790574.0	0.146173	0.681185
     29436.15	0.12680	1820194.0	1572852.0	796289.0	0.146053	0.680684
     29436.65	0.12444	1784765.0	1542426.0	780858.0	0.145930	0.680718
     29437.15	0.12832	1878683.0	1623547.0	822347.0	0.145958	0.680206
     29437.64	0.12570	1783411.0	1541717.0	780970.0	0.145631	0.680115
     29438.14	0.11925	1717851.0	1485037.0	752358.0	0.145634	0.679983
     29438.64	0.11768	1727146.0	1492557.0	756568.0	0.145980	0.679454
     29439.14	0.12271	1764955.0	1525309.0	773342.0	0.145928	0.679231
     29439.64	0.12226	1788548.0	1545852.0	783694.0	0.145829	0.679312
     29440.14	0.11745	1686052.0	1457397.0	739462.0	0.145738	0.678484
     29440.63	0.12196	1768054.0	1527966.0	775272.0	0.145942	0.678479
     29441.13	0.12346	1774011.0	1532818.0	777945.0	0.146135	0.678207
     29441.63	0.11598	1663623.0	1438114.0	730152.0	0.145665	0.677835
     29442.13	0.12669	1825746.0	1577948.0	801196.0	0.145863	0.677775
     29442.63	0.13686	1970661.0	1703338.0	864988.0	0.145779	0.677630
     29443.13	0.13139	1862261.0	1610247.0	818247.0	0.145404	0.676979
     29443.63	0.12008	1707647.0	1476005.0	750505.0	0.145777	0.676348
     29444.12	0.12875	1809521.0	1564107.0	795555.0	0.145747	0.676030
     29444.62	0.12640	1831656.0	1583754.0	805401.0	0.145422	0.676213
     29445.12	0.13007	1860730.0	1608624.0	818881.0	0.145590	0.675196
     29445.62	0.12538	1799251.0	1555376.0	792122.0	0.145653	0.674757
     29446.12	0.11245	1612252.0	1393856.0	709772.0	0.145558	0.674885
     29446.62	0.13149	1908110.0	1649616.0	839945.0	0.145571	0.674961
     29447.12	0.12842	1847662.0	1597233.0	814151.0	0.145648	0.673882
     29447.62	0.11728	1695158.0	1465817.0	747187.0	0.145363	0.673853
     29448.11	0.12239	1762557.0	1523445.0	777192.0	0.145791	0.673042
     29448.61	0.12597	1778472.0	1537372.0	784771.0	0.145680	0.672438
     29449.11	0.13014	1863489.0	1610943.0	822114.0	0.145631	0.672696
     29449.61	0.12400	1756800.0	1519270.0	776098.0	0.145264	0.671706
     29450.11	0.12722	1826961.0	1579962.0	807241.0	0.145253	0.671534
     29450.61	0.13405	1926505.0	1665884.0	851287.0	0.145352	0.671362
     29451.11	0.13273	1898704.0	1641875.0	839466.0	0.145333	0.670828
     29451.61	0.13367	1920367.0	1660378.0	849400.0	0.145471	0.670270
     29452.10	0.12164	1745070.0	1509091.0	772148.0	0.145287	0.670087
     29452.60	0.12701	1811123.0	1566144.0	801355.0	0.145331	0.670068
     29453.10	0.12482	1781250.0	1539930.0	788798.0	0.145578	0.668982
     29453.60	0.13064	1858606.0	1607058.0	823318.0	0.145422	0.668818
     29454.10	0.12850	1761016.0	1522644.0	780535.0	0.145443	0.668224
     29454.60	0.12572	1787812.0	1546321.0	792842.0	0.145114	0.668010
     29455.10	0.12717	1792069.0	1549347.0	794909.0	0.145537	0.667361
     29455.60	0.12009	1688758.0	1460903.0	749357.0	0.144939	0.667595
     29456.10	0.11594	1644310.0	1422049.0	729862.0	0.145222	0.666999
     29456.59	0.11903	1671013.0	1445180.0	742115.0	0.145196	0.666485
     29457.09	0.12674	1806460.0	1562091.0	802461.0	0.145344	0.666097
     29457.59	0.11157	1580655.0	1367076.0	702640.0	0.145165	0.665585
     29458.09	0.11666	1618964.0	1400169.0	720036.0	0.145193	0.665047
     29458.59	0.12574	1775447.0	1535298.0	789605.0	0.145328	0.664947
     29459.09	0.12257	1727958.0	1494823.0	769090.0	0.144933	0.664555
     29459.59	0.10592	1477357.0	1277904.0	657937.0	0.145033	0.663867
     29460.09	0.10982	1544988.0	1336564.0	688451.0	0.144914	0.663413
     29460.59	0.11434	1617195.0	1399081.0	720137.0	0.144878	0.664129
     29461.09	0.12036	1692168.0	1464045.0	754126.0	0.144807	0.663399
     29461.59	0.11493	1627154.0	1407506.0	725365.0	0.145013	0.662900
     29462.09	0.14173	2002318.0	1732037.0	893021.0	0.145007	0.662443
     29462.58	0.12127	1711519.0	1481298.0	763715.0	0.144463	0.662479
     29463.08	0.16218	2265776.0	1960496.0	1011548.0	0.144720	0.661716
     29463.58	0.10519	1453934.0	1258366.0	649560.0	0.144459	0.661274
     29464.08	0.11634	1610098.0	1393500.0	719490.0	0.144476	0.661031
     29464.58	0.14261	2009120.0	1739163.0	898141.0	0.144293	0.660832
     29465.08	0.12542	1724546.0	1492466.0	771008.0	0.144534	0.660486
     29465.58	0.12700	1771617.0	1533006.0	791986.0	0.144662	0.660442
     29466.08	0.13386	1866438.0	1615397.0	835165.0	0.144451	0.659707
     29466.58	0.15518	2180492.0	1887516.0	975497.0	0.144289	0.660070
     29467.08	0.15816	2213972.0	1916451.0	991125.0	0.144313	0.659390
     29467.58	0.097580	1365665.0	1182211.0	611374.0	0.144255	0.659433
     29468.08	0.10076	1428946.0	1236983.0	639957.0	0.144262	0.659030
     29468.58	0.13008	1826627.0	1581526.0	818465.0	0.144081	0.658715
     29469.08	0.12976	1784799.0	1544984.0	800027.0	0.144292	0.658123
     29469.58	0.13532	1897144.0	1642380.0	850434.0	0.144203	0.658155
     29470.07	0.14437	2040343.0	1766543.0	915064.0	0.144093	0.657786
     29470.57	0.13585	1896318.0	1642219.0	850573.0	0.143866	0.657893
     29471.07	0.14508	2045722.0	1771359.0	917600.0	0.144004	0.657741
     29471.57	0.11386	1638955.0	1419039.0	735388.0	0.144079	0.657337
     29472.07	0.12758	1849542.0	1601850.0	829981.0	0.143779	0.657512
     29472.57	0.12994	1842534.0	1595401.0	826837.0	0.144017	0.657273
     29473.07	0.12119	1732217.0	1500269.0	777474.0	0.143758	0.657350
     29473.57	0.13417	1904915.0	1649816.0	855425.0	0.143774	0.656821
     29474.07	0.12938	1834664.0	1589079.0	824033.0	0.143707	0.656699
     29474.57	0.15118	2148097.0	1860639.0	964855.0	0.143662	0.656697
     29475.07	0.10392	1460413.0	1264777.0	655985.0	0.143823	0.656513
     29475.57	0.11796	1660667.0	1438457.0	746224.0	0.143648	0.656300
     29476.07	0.11971	1711150.0	1482426.0	768981.0	0.143486	0.656369
     29476.57	0.13014	1836411.0	1591463.0	825644.0	0.143159	0.656245
     29477.07	0.11639	1653557.0	1432817.0	743490.0	0.143286	0.656042
     29477.57	0.12955	1828287.0	1584004.0	821687.0	0.143424	0.656352
     29478.07	0.13215	1898364.0	1644676.0	853243.0	0.143449	0.656254
     29478.57	0.12122	1712699.0	1483927.0	769815.0	0.143379	0.656297
     29479.07	0.11471	1624035.0	1407199.0	730375.0	0.143313	0.655798
     29479.57	0.11809	1670737.0	1447776.0	751295.0	0.143236	0.655985
     29480.07	0.11819	1666275.0	1443965.0	749455.0	0.143198	0.655802
     29480.57	0.12435	1778007.0	1540512.0	799704.0	0.143378	0.655628
     29481.07	0.11949	1705472.0	1477972.0	766996.0	0.143171	0.655945
     29481.57	0.12298	1738462.0	1506664.0	781680.0	0.143103	0.656208
     29482.07	0.13007	1847214.0	1601441.0	831341.0	0.142775	0.655619
     29482.57	0.14848	2112336.0	1830708.0	950395.0	0.143092	0.655580
     29483.07	0.12225	1713217.0	1485059.0	771090.0	0.142918	0.655405
     29483.57	0.12603	1805053.0	1564698.0	812130.0	0.142897	0.655788
     29484.07	0.12796	1814228.0	1572541.0	815980.0	0.142967	0.656058
     29484.57	0.12951	1863205.0	1615256.0	838749.0	0.142805	0.655337
     29485.07	0.11115	1559530.0	1351597.0	701711.0	0.143098	0.655520
     29485.57	0.13579	1949660.0	1690372.0	877349.0	0.142706	0.655799
     29486.07	0.12483	1767139.0	1532106.0	794849.0	0.142719	0.656246
     29486.57	0.13445	1926792.0	1670561.0	867175.0	0.142697	0.655674
     29487.07	0.12295	1751499.0	1518628.0	787998.0	0.142665	0.656067
     29487.57	0.11786	1679025.0	1455842.0	755545.0	0.142629	0.655900
     29488.07	0.11982	1704511.0	1477616.0	766902.0	0.142848	0.655826
     29488.57	0.11935	1699250.0	1473665.0	764529.0	0.142434	0.656248
     29489.07	0.14126	2029076.0	1759230.0	913131.0	0.142704	0.655752
     29489.57	0.14156	2045301.0	1773450.0	920174.0	0.142618	0.656119
     29490.07	0.14182	2019718.0	1751741.0	909181.0	0.142348	0.655821
     29490.57	0.13268	1897205.0	1645607.0	853770.0	0.142272	0.656203
     29491.07	0.10108	1447151.0	1254931.0	651384.0	0.142516	0.655737
     29491.57	0.11441	1619661.0	1404712.0	728747.0	0.142385	0.656261
     29492.07	0.12293	1757568.0	1524469.0	791201.0	0.142285	0.655849
     29492.57	0.12638	1814054.0	1573186.0	816188.0	0.142461	0.656213
     29493.07	0.13135	1850159.0	1604772.0	832342.0	0.142290	0.656494
     29493.57	0.12878	1848780.0	1603645.0	832169.0	0.142247	0.655999
     29494.07	0.14095	2025514.0	1757311.0	911697.0	0.142039	0.656232
     29494.57	0.10820	1545908.0	1341237.0	695659.0	0.142019	0.656488
     29495.07	0.11846	1692950.0	1469061.0	761734.0	0.141849	0.656781
     29495.57	0.11543	1641492.0	1424836.0	739052.0	0.141549	0.656444
     29496.07	0.12286	1750845.0	1519331.0	787809.0	0.141828	0.656770
     29496.57	0.12567	1801043.0	1562846.0	810561.0	0.141857	0.656537
     29497.07	0.12105	1748746.0	1517726.0	787598.0	0.141686	0.655981
     29497.57	0.14148	2002553.0	1738014.0	902001.0	0.141680	0.655883
     29498.07	0.11128	1573957.0	1365939.0	708764.0	0.141751	0.656075
     29498.57	0.10708	1531298.0	1329088.0	689400.0	0.141623	0.656427
     29499.07	0.092956	1329296.0	1153374.0	598550.0	0.141958	0.655937
     29499.57	0.12197	1730052.0	1501501.0	778933.0	0.141686	0.656296
     29500.07	0.11301	1623896.0	1409559.0	731383.0	0.141551	0.656095
     29500.58	0.13185	1875924.0	1628162.0	845143.0	0.141650	0.655701
     29501.08	0.11690	1656480.0	1437816.0	745929.0	0.141570	0.656250
     29501.58	0.12570	1776916.0	1542301.0	800063.0	0.141604	0.656340
     29502.08	0.13023	1818582.0	1578371.0	819264.0	0.141664	0.655742
     29502.58	0.12280	1725961.0	1498452.0	777718.0	0.141351	0.655824
     29503.08	0.13386	1878739.0	1630734.0	846481.0	0.141571	0.655698
     29503.58	0.12473	1755157.0	1523991.0	790926.0	0.141226	0.655883
     29504.08	0.13770	1960280.0	1702024.0	883156.0	0.141269	0.656072
     29504.58	0.12529	1790278.0	1554201.0	806710.0	0.141409	0.655753
     29505.08	0.13692	1929600.0	1675189.0	869907.0	0.141387	0.655295
     29505.58	0.14098	1971898.0	1712323.0	888924.0	0.141146	0.655594
     29506.08	0.16039	2266885.0	1968320.0	1022161.0	0.141226	0.655261
     29506.58	0.10044	1428684.0	1240809.0	644589.0	0.140990	0.654906
     29507.08	0.13106	1808793.0	1570517.0	815944.0	0.141255	0.654814
     29507.58	0.10661	1516126.0	1316742.0	683649.0	0.140998	0.655471
     29508.09	0.14105	1990898.0	1728660.0	898056.0	0.141239	0.654869
     29508.59	0.15254	2172702.0	1886738.0	980086.0	0.141122	0.654964
     29509.09	0.16290	2300665.0	1998161.0	1037992.0	0.140971	0.654939
     29509.59	0.18671	2630422.0	2284196.0	1187193.0	0.141130	0.654422
     29510.09	0.094581	1328954.0	1153965.0	599796.0	0.141188	0.654370
     29510.59	0.071247	1012752.0	879476.0	457244.0	0.141100	0.654109
     29511.09	0.12233	1700936.0	1477116.0	768177.0	0.141087	0.653827
     29511.59	0.13230	1863306.0	1618461.0	841518.0	0.140877	0.654024
     29512.09	0.12334	1743238.0	1514501.0	787429.0	0.140658	0.654068
     29512.59	0.13130	1859672.0	1615192.0	840326.0	0.140946	0.653419
     29513.09	0.12379	1751141.0	1521148.0	791379.0	0.140802	0.653444
     29513.60	0.13173	1861351.0	1616871.0	841775.0	0.140810	0.652735
     29514.10	0.12020	1691126.0	1468660.0	764461.0	0.141044	0.652935
     29514.60	0.11901	1703622.0	1480038.0	770417.0	0.140689	0.652891
     29515.10	0.13158	1858647.0	1614694.0	840539.0	0.140703	0.652857
     29515.60	0.12803	1824631.0	1585262.0	825581.0	0.140628	0.652418
     29516.10	0.12531	1758073.0	1527299.0	795674.0	0.140718	0.652067
     29516.60	0.12188	1704895.0	1480948.0	771541.0	0.140821	0.652048
     29517.10	0.12581	1772042.0	1539657.0	802360.0	0.140573	0.651758
     29517.60	0.11923	1692986.0	1471096.0	766786.0	0.140486	0.651555
     29518.10	0.12028	1721018.0	1495468.0	779766.0	0.140477	0.651201
     29518.61	0.11513	1611463.0	1400236.0	730067.0	0.140502	0.651260
     29519.11	0.13395	1889203.0	1641444.0	856172.0	0.140579	0.650860
     29519.61	0.11707	1644744.0	1429171.0	745704.0	0.140490	0.650521
     29520.11	0.11762	1654891.0	1437867.0	750506.0	0.140574	0.650168
     29520.61	0.13445	1864491.0	1620154.0	845718.0	0.140467	0.650091
     29521.11	0.13312	1859668.0	1616100.0	843502.0	0.140382	0.650209
     29521.61	0.12525	1732929.0	1505995.0	786204.0	0.140359	0.649993
     29522.11	0.11164	1566431.0	1361168.0	711298.0	0.140457	0.649007
     29522.62	0.14830	2089163.0	1815362.0	948764.0	0.140479	0.648880
     29523.12	0.12390	1744586.0	1515865.0	792329.0	0.140531	0.648765
     29523.62	0.13743	1929921.0	1677002.0	876808.0	0.140471	0.648475
     29524.12	0.13319	1903610.0	1654002.0	865145.0	0.140554	0.648056
     29524.62	0.11072	1531790.0	1330985.0	696525.0	0.140518	0.647571
     29525.12	0.11522	1629709.0	1416080.0	741065.0	0.140509	0.647559
     29525.62	0.12392	1750495.0	1521153.0	796035.0	0.140430	0.647581
     29526.12	0.11539	1619739.0	1407794.0	737288.0	0.140241	0.646801
     29526.63	0.13107	1855744.0	1613016.0	844640.0	0.140180	0.646950
     29527.13	0.12486	1751610.0	1522433.0	797963.0	0.140226	0.646003
     29527.63	0.12898	1810118.0	1573134.0	824520.0	0.140322	0.646024
     29528.13	0.14006	1994623.0	1733742.0	908854.0	0.140173	0.645853
     29528.63	0.12406	1782019.0	1548769.0	812164.0	0.140287	0.645513
     29529.13	0.13113	1837926.0	1597264.0	838204.0	0.140346	0.644786
     29529.64	0.12499	1736643.0	1509180.0	792152.0	0.140387	0.644568
     29530.14	0.12711	1803862.0	1567958.0	823135.0	0.140156	0.644409
     29530.64	0.12588	1777725.0	1545507.0	811475.0	0.139982	0.644254
     29531.14	0.13167	1859211.0	1616267.0	849007.0	0.140033	0.643807
     29531.64	0.12323	1749977.0	1521325.0	799236.0	0.140021	0.643681
     29532.14	0.12048	1701038.0	1478976.0	777123.0	0.139889	0.643507
     29532.64	0.12977	1844269.0	1603087.0	842464.0	0.140152	0.643355
     29533.15	0.12019	1717641.0	1493514.0	785030.0	0.139820	0.643165
     29533.65	0.13479	1906597.0	1657512.0	872046.0	0.140002	0.642231
     29534.15	0.11242	1575869.0	1370189.0	720750.0	0.139858	0.642412
     29534.65	0.12322	1737102.0	1510077.0	794495.0	0.140058	0.642209
     29535.15	0.12437	1721983.0	1496987.0	788237.0	0.140022	0.641411
     29535.65	0.11074	1551378.0	1348285.0	710185.0	0.140310	0.641063
     29536.16	0.12258	1693174.0	1472306.0	775408.0	0.139775	0.641196
     29536.66	0.11757	1641907.0	1427526.0	752324.0	0.139915	0.640531
     29537.16	0.10437	1427998.0	1241310.0	654315.0	0.140106	0.640334
     29537.66	0.11809	1636926.0	1423579.0	750371.0	0.139646	0.640362
     29538.16	0.10907	1539089.0	1338628.0	705930.0	0.139545	0.639884
     29538.67	0.11950	1652588.0	1437062.0	757982.0	0.139742	0.639696
     29539.17	0.12093	1709313.0	1486634.0	784684.0	0.139577	0.638989
     29539.67	0.12904	1780448.0	1548340.0	817163.0	0.139682	0.639100
     29540.17	0.13179	1848867.0	1608248.0	848887.0	0.139428	0.638975
     29540.67	0.11415	1582833.0	1376242.0	726736.0	0.139860	0.638549
     29541.17	0.13306	1844506.0	1604353.0	847452.0	0.139491	0.638242
     29541.68	0.12701	1780643.0	1549066.0	818313.0	0.139322	0.638163
     29542.18	0.13588	1909800.0	1661023.0	877707.0	0.139565	0.637876
     29542.68	0.12492	1694932.0	1474808.0	779339.0	0.139115	0.637837
     29543.18	0.13645	1898066.0	1651147.0	873140.0	0.139365	0.637130
     29543.68	0.13049	1822728.0	1585267.0	838533.0	0.139581	0.636854
     29544.19	0.16132	2222936.0	1934151.0	1023366.0	0.139160	0.636571
     29544.69	0.10763	1503223.0	1308104.0	691858.0	0.139033	0.636953
     29545.19	0.11377	1590875.0	1384341.0	732546.0	0.139060	0.636453
     29545.69	0.13183	1833030.0	1594545.0	844086.0	0.139382	0.636089
     29546.19	0.13431	1861117.0	1619351.0	857895.0	0.139151	0.635299
     29546.70	0.13099	1840533.0	1601432.0	847729.0	0.139157	0.636092
     29547.20	0.13930	1951481.0	1697934.0	899557.0	0.139176	0.635265
     29547.70	0.13974	1945239.0	1692957.0	897104.0	0.138908	0.635060
     29548.20	0.14640	2042364.0	1777521.0	941853.0	0.138888	0.635126
     29548.71	0.10981	1535008.0	1335687.0	708253.0	0.139090	0.634400
     29549.21	0.12541	1750537.0	1523817.0	807600.0	0.138704	0.634907
     29549.71	0.12900	1794111.0	1561799.0	827927.0	0.138671	0.634669
     29550.21	0.13758	1948274.0	1695738.0	899170.0	0.138826	0.634401
     29550.71	0.12730	1761366.0	1532931.0	813273.0	0.138908	0.633870
     29551.22	0.12852	1812758.0	1578109.0	837153.0	0.138622	0.633976
     29551.72	0.12674	1772286.0	1542441.0	818460.0	0.138904	0.633697
     29552.22	0.11980	1680434.0	1462700.0	776171.0	0.138768	0.633666
     29552.72	0.12458	1735851.0	1511581.0	802278.0	0.138342	0.633456
     29553.23	0.12156	1691288.0	1472014.0	781398.0	0.138859	0.633302
     29553.73	0.13272	1852982.0	1613139.0	856334.0	0.138614	0.633277
     29554.23	0.13582	1885162.0	1640946.0	871354.0	0.138741	0.632980
     29554.73	0.12707	1773550.0	1543883.0	820283.0	0.138683	0.632407
     29555.24	0.11995	1672179.0	1456190.0	773579.0	0.138304	0.632551
     29555.74	0.12395	1699611.0	1480034.0	786302.0	0.138334	0.632479
     29556.24	0.11484	1591297.0	1385883.0	736378.0	0.138212	0.632349
     29556.74	0.12008	1690983.0	1472710.0	782467.0	0.138206	0.632408
     29557.24	0.12317	1720934.0	1498315.0	796182.0	0.138526	0.632269
     29557.75	0.11897	1651048.0	1437859.0	764253.0	0.138255	0.632012
     29558.25	0.12033	1671042.0	1454881.0	773661.0	0.138523	0.631546
     29558.75	0.11677	1648538.0	1435909.0	763540.0	0.138091	0.631588
     29559.26	0.12575	1738965.0	1514495.0	805170.0	0.138208	0.631784
     29559.76	0.13693	1932984.0	1683084.0	895098.0	0.138437	0.631450
     29560.26	0.11938	1644044.0	1432395.0	761736.0	0.137811	0.631503
     29560.76	0.12202	1701624.0	1482323.0	788376.0	0.137973	0.631391
     29561.27	0.13723	1931991.0	1682977.0	894660.0	0.137987	0.631876
     29561.77	0.13492	1873524.0	1631990.0	868036.0	0.138021	0.631322
     29562.27	0.12341	1700099.0	1481515.0	787793.0	0.137621	0.631585
     29562.77	0.12774	1767397.0	1539201.0	819040.0	0.138244	0.630886
     29563.28	0.14541	2009035.0	1750475.0	931146.0	0.137767	0.631226
     29563.78	0.15082	2078280.0	1810564.0	963441.0	0.137902	0.630882
     29564.28	0.11296	1578741.0	1375861.0	732137.0	0.137548	0.630867
     29564.78	0.083588	1158053.0	1008910.0	536957.0	0.137870	0.630708
     29565.29	0.12506	1709803.0	1489453.0	792656.0	0.137969	0.630775
     29565.79	0.12745	1738926.0	1514544.0	806047.0	0.138153	0.630728
     29566.29	0.12963	1794696.0	1563502.0	832026.0	0.137907	0.630820
     29566.80	0.12826	1762053.0	1534958.0	817053.0	0.137977	0.630554
     29567.30	0.17107	2362044.0	2058260.0	1095861.0	0.137666	0.630321
     29567.80	0.11686	1615573.0	1407622.0	749593.0	0.137788	0.630127
     29568.30	0.093006	1284655.0	1119736.0	596232.0	0.137397	0.630218
     29568.81	0.13044	1799065.0	1567465.0	834904.0	0.137807	0.629898
     29569.31	0.12666	1729294.0	1506641.0	802628.0	0.137831	0.629747
     29569.81	0.12964	1777501.0	1549409.0	825463.0	0.137335	0.629684
     29570.32	0.12633	1715023.0	1494571.0	796143.0	0.137587	0.629816
     29570.82	0.13211	1816612.0	1583561.0	843414.0	0.137297	0.629973
     29571.32	0.13095	1816772.0	1583101.0	843328.0	0.137676	0.629785
     29571.82	0.13244	1848136.0	1610646.0	857703.0	0.137542	0.630133
     29572.33	0.11557	1620652.0	1412737.0	752444.0	0.137300	0.629958
     29572.83	0.11489	1537850.0	1340580.0	714311.0	0.137283	0.629539
     29573.33	0.12132	1649670.0	1438123.0	766110.0	0.137236	0.629768
     29573.84	0.12207	1666793.0	1452805.0	773581.0	0.137405	0.630221
     29574.34	0.12029	1653902.0	1441571.0	767982.0	0.137404	0.629722
     29574.84	0.12678	1771158.0	1543969.0	822573.0	0.137277	0.629674
     29575.35	0.12196	1688171.0	1471622.0	784061.0	0.137281	0.629634
     29575.85	0.12694	1790383.0	1561523.0	831539.0	0.136768	0.630139
     29576.35	0.10726	1492498.0	1301227.0	693285.0	0.137144	0.629622
     29576.85	0.11083	1552042.0	1353574.0	721200.0	0.136823	0.629587
     29577.36	0.10216	1405804.0	1226108.0	653715.0	0.136764	0.628929
     29577.86	0.12235	1669151.0	1455101.0	775569.0	0.137240	0.629234
     29578.36	0.12237	1675370.0	1460677.0	778432.0	0.137134	0.629374
     29578.87	0.12383	1744537.0	1521062.0	810983.0	0.137080	0.628917
     29579.37	0.11847	1630238.0	1421763.0	757707.0	0.136828	0.629356
     29579.87	0.15005	2069667.0	1805197.0	962105.0	0.136718	0.629301
     29580.38	0.11969	1674052.0	1459667.0	778056.0	0.137039	0.629165
     29580.88	0.11464	1597180.0	1392976.0	742732.0	0.136797	0.628862
     29581.38	0.11544	1599394.0	1394739.0	743764.0	0.136918	0.628739
     29581.89	0.14728	2041251.0	1779701.0	948912.0	0.137117	0.628885
     29582.39	0.12326	1722750.0	1502197.0	800790.0	0.136993	0.629085
     29582.89	0.13651	1900209.0	1657417.0	883517.0	0.136704	0.629105
     29583.40	0.12787	1784523.0	1556803.0	830143.0	0.136517	0.628792
     29583.90	0.12911	1784874.0	1556766.0	830546.0	0.136737	0.628283
     29584.40	0.11854	1655514.0	1444455.0	770336.0	0.136379	0.628661
     29584.91	0.13121	1812318.0	1580801.0	843460.0	0.136675	0.628174
     29585.41	0.12524	1740885.0	1518603.0	810069.0	0.136603	0.628427
     29585.91	0.12795	1781989.0	1555061.0	829548.0	0.136215	0.628389
     29586.42	0.14450	1994529.0	1740419.0	928547.0	0.136282	0.628260
     29586.92	0.11910	1634187.0	1425501.0	760576.0	0.136622	0.628203
     29587.42	0.14233	1980884.0	1728207.0	922280.0	0.136459	0.627991
     29587.93	0.15451	2147896.0	1874764.0	1000303.0	0.136006	0.628180
     29588.43	0.12457	1703061.0	1485998.0	793278.0	0.136341	0.627668
     29588.93	0.11813	1632987.0	1425267.0	760779.0	0.136052	0.627772
     29589.44	0.13442	1823155.0	1590789.0	849187.0	0.136338	0.627706
     29589.94	0.13543	1878861.0	1639733.0	875623.0	0.136132	0.627353
     29590.45	0.12024	1665986.0	1454127.0	776259.0	0.136011	0.627675
     29590.95	0.14762	2068092.0	1804915.0	963807.0	0.136113	0.627378
     29591.45	0.11413	1603280.0	1399434.0	746947.0	0.135984	0.627829
     29591.96	0.13394	1820870.0	1588979.0	848746.0	0.136223	0.627087
     29592.46	0.10949	1479208.0	1291156.0	689730.0	0.135969	0.626993
     29592.96	0.12442	1739638.0	1518678.0	811123.0	0.135837	0.627176
     29593.47	0.13740	1915133.0	1671672.0	893305.0	0.135963	0.626652
     29593.97	0.12241	1700703.0	1484696.0	793329.0	0.135832	0.626727
     29594.48	0.12247	1691419.0	1476192.0	788869.0	0.136102	0.626621
     29594.98	0.12862	1760641.0	1536890.0	821359.0	0.135917	0.626556
     29595.48	0.12502	1698659.0	1483077.0	792833.0	0.135720	0.626262
     29595.99	0.11516	1580210.0	1379398.0	737598.0	0.135911	0.626003
     29596.49	0.11992	1665642.0	1454186.0	777747.0	0.135764	0.625800
     29596.99	0.12855	1784924.0	1558351.0	833168.0	0.135748	0.626148
     29597.50	0.12017	1670243.0	1458244.0	780032.0	0.135736	0.625653
     29598.00	0.12206	1665590.0	1454206.0	777815.0	0.135719	0.625727
     29598.51	0.11703	1623032.0	1417165.0	758213.0	0.135638	0.625449
     29599.01	0.13184	1798908.0	1570980.0	840701.0	0.135480	0.625219
     29599.51	0.12594	1758887.0	1535373.0	821477.0	0.135908	0.625425
     29600.02	0.12366	1715493.0	1498213.0	801759.0	0.135427	0.625220
     29600.52	0.12216	1700800.0	1485957.0	795096.0	0.135040	0.625351
     29601.03	0.13603	1890798.0	1651353.0	883916.0	0.135404	0.624988
     29601.53	0.12640	1758809.0	1536103.0	822406.0	0.135388	0.624770
     29602.03	0.12677	1738268.0	1517656.0	812681.0	0.135722	0.624584
     29602.54	0.14169	1970968.0	1721563.0	921772.0	0.135292	0.624690
     29603.04	0.11710	1641533.0	1433680.0	767818.0	0.135386	0.624447
     29603.55	0.12840	1815190.0	1585858.0	849482.0	0.135065	0.624254
     29604.05	0.11435	1587933.0	1387356.0	743361.0	0.135033	0.623973
     29604.55	0.12929	1799074.0	1571481.0	842063.0	0.135254	0.623919
     29605.06	0.11841	1625377.0	1420168.0	761114.0	0.134965	0.623747
     29605.56	0.12349	1715688.0	1498271.0	803014.0	0.135502	0.623695
     29606.07	0.13029	1814807.0	1585238.0	850306.0	0.135245	0.622894
     29606.57	0.12625	1724547.0	1506727.0	808203.0	0.135025	0.622882
     29607.07	0.13449	1857730.0	1622998.0	870797.0	0.135080	0.622621
     29607.58	0.14263	1934708.0	1690390.0	906970.0	0.134997	0.622605
     29608.08	0.12620	1763748.0	1540969.0	827193.0	0.135030	0.622129
     29608.59	0.12551	1753716.0	1532753.0	822498.0	0.134672	0.622475
     29609.09	0.14105	1929565.0	1686310.0	904994.0	0.134752	0.622370
     29609.60	0.12025	1660769.0	1451246.0	779283.0	0.134858	0.621804
     29610.10	0.13058	1806687.0	1578560.0	847557.0	0.134982	0.621910
     29610.60	0.12816	1808082.0	1580622.0	848872.0	0.134448	0.621665
     29611.11	0.12480	1701046.0	1486540.0	798763.0	0.134792	0.621142
     29611.61	0.12727	1719297.0	1502458.0	807410.0	0.134813	0.621026
     29612.12	0.11883	1637673.0	1431272.0	769179.0	0.134713	0.620995
     29612.62	0.11980	1666531.0	1456501.0	783093.0	0.134707	0.620541
     29613.13	0.13150	1809972.0	1581742.0	850242.0	0.134785	0.620761
     29613.63	0.11137	1543267.0	1348661.0	725473.0	0.134789	0.620044
     29614.13	0.12453	1732085.0	1513615.0	814221.0	0.134825	0.620024
     29614.64	0.11621	1599199.0	1397911.0	751606.0	0.134524	0.620522
     29615.14	0.12348	1716975.0	1500166.0	807233.0	0.134988	0.619719
     29615.65	0.11542	1578810.0	1380247.0	743030.0	0.134409	0.619281
     29616.15	0.10419	1456259.0	1272800.0	685223.0	0.134652	0.619230
     29616.66	0.12869	1777558.0	1553871.0	836836.0	0.134491	0.618876
     29617.16	0.11483	1590780.0	1390712.0	748877.0	0.134409	0.618996
     29617.67	0.11946	1649515.0	1441490.0	776793.0	0.134804	0.618259
     29618.17	0.10872	1494175.0	1306024.0	703703.0	0.134587	0.618386
     29618.68	0.11999	1640299.0	1433880.0	772844.0	0.134494	0.618062
     29619.18	0.12275	1713485.0	1498080.0	807592.0	0.134345	0.617883
     29619.68	0.12025	1653805.0	1445733.0	779494.0	0.134462	0.617727
     29620.19	0.12117	1668428.0	1458668.0	786304.0	0.134358	0.617935
     29620.69	0.13042	1795627.0	1569612.0	846659.0	0.134526	0.617286
     29621.20	0.12879	1799643.0	1572959.0	848783.0	0.134630	0.616910
     29621.70	0.11958	1658227.0	1449698.0	782104.0	0.134394	0.617123
     29622.21	0.14163	1943554.0	1698928.0	916884.0	0.134521	0.616772
     29622.71	0.12412	1736190.0	1518217.0	819935.0	0.134156	0.616067
     29623.22	0.13430	1847743.0	1615673.0	872478.0	0.134213	0.616169
     29623.72	0.14557	2015745.0	1762849.0	952185.0	0.134058	0.615927
     29624.23	0.11332	1530233.0	1338393.0	723245.0	0.133950	0.615477
     29624.73	0.10580	1445059.0	1263734.0	682952.0	0.134079	0.615402
     29625.24	0.14105	1920423.0	1679067.0	907490.0	0.134307	0.615311
     29625.74	0.13466	1853962.0	1621238.0	876565.0	0.134135	0.614934
     29626.25	0.12428	1684363.0	1473029.0	796215.0	0.134067	0.615207
     29626.75	0.13938	1860805.0	1626876.0	879584.0	0.134348	0.614968
     29627.26	0.13712	1863277.0	1629256.0	881580.0	0.134213	0.614163
     29627.76	0.13592	1855830.0	1623136.0	878182.0	0.133972	0.614261
     29628.27	0.11332	1527224.0	1335610.0	722924.0	0.134064	0.613839
     29628.77	0.14510	1969105.0	1722008.0	932014.0	0.134088	0.613898
     29629.28	0.13395	1791782.0	1567477.0	848661.0	0.133743	0.613563
     29629.78	0.12384	1692494.0	1480705.0	802064.0	0.133685	0.613085
     29630.28	0.13654	1841043.0	1610270.0	872399.0	0.133930	0.612910
     29630.79	0.12919	1743344.0	1525240.0	826483.0	0.133653	0.612728
     29631.29	0.12811	1730006.0	1513573.0	820277.0	0.133652	0.612586
     29631.80	0.12778	1697137.0	1484397.0	804496.0	0.133934	0.612548
     29632.31	0.12219	1636174.0	1430584.0	775806.0	0.134278	0.611936
     29632.81	0.12740	1690330.0	1478847.0	801424.0	0.133661	0.612628
     29633.32	0.11880	1584832.0	1386507.0	751875.0	0.133691	0.611973
     29633.82	0.12456	1621237.0	1418598.0	769452.0	0.133520	0.611746
     29634.33	0.12664	1693484.0	1481889.0	804012.0	0.133470	0.611459
     29634.83	0.13080	1766188.0	1545039.0	838633.0	0.133774	0.611031
     29635.34	0.12103	1616230.0	1413972.0	767324.0	0.133694	0.611249
     29635.84	0.13107	1741673.0	1524025.0	827125.0	0.133491	0.611154
     29636.35	0.12080	1601246.0	1401438.0	760782.0	0.133283	0.610907
     29636.85	0.12437	1656630.0	1450045.0	787442.0	0.133191	0.610560
     29637.36	0.12445	1670807.0	1462729.0	793990.0	0.133003	0.610988
     29637.86	0.12189	1610305.0	1409345.0	765662.0	0.133299	0.610140
     29638.37	0.11051	1492085.0	1305929.0	709431.0	0.133260	0.610207
     29638.87	0.11666	1554861.0	1361150.0	739820.0	0.133056	0.609678
     29639.38	0.12944	1710431.0	1497168.0	813642.0	0.133170	0.609810
     29639.88	0.12375	1634270.0	1430328.0	777699.0	0.133292	0.609320
     29640.39	0.12275	1634024.0	1430201.0	777365.0	0.133231	0.609660
     29640.89	0.13249	1754326.0	1535732.0	835255.0	0.133078	0.609025
     29641.40	0.12060	1589657.0	1391702.0	756686.0	0.132991	0.609334
     29641.90	0.13486	1754245.0	1535854.0	835478.0	0.132952	0.608838
     29642.41	0.12920	1723625.0	1508976.0	820939.0	0.132998	0.608738
     29642.91	0.12562	1671694.0	1463291.0	795916.0	0.133149	0.608950
     29643.42	0.14201	1869667.0	1636636.0	890773.0	0.133117	0.608309
     29643.93	0.11481	1533616.0	1342416.0	730601.0	0.133157	0.608359
     29644.43	0.11741	1579011.0	1382031.0	752376.0	0.133245	0.608073
     29644.94	0.12980	1754225.0	1536170.0	836406.0	0.132735	0.607933
     29645.44	0.11688	1539281.0	1347917.0	733760.0	0.132755	0.608134
     29645.95	0.13108	1744055.0	1527271.0	831187.0	0.132730	0.608383
     29646.45	0.12070	1594476.0	1396467.0	760364.0	0.132600	0.607903
     29646.96	0.12298	1626340.0	1424144.0	775621.0	0.132761	0.607662
     29647.46	0.12488	1624345.0	1422178.0	774659.0	0.132915	0.607522
     29647.97	0.14113	1865780.0	1633710.0	889719.0	0.132826	0.607703
     29648.48	0.13456	1754406.0	1536387.0	837147.0	0.132697	0.607189
     29648.98	0.11655	1516466.0	1327676.0	723125.0	0.132953	0.607603
     29649.49	0.13047	1705544.0	1493803.0	814148.0	0.132559	0.606938
     29649.99	0.13454	1776599.0	1556077.0	848353.0	0.132533	0.606626
     29650.50	0.12381	1628880.0	1426497.0	777547.0	0.132671	0.606833
     29651.00	0.13420	1771804.0	1552011.0	846056.0	0.132447	0.606721
     29651.51	0.12856	1667927.0	1460881.0	796767.0	0.132542	0.606233
     29652.02	0.11841	1527617.0	1338101.0	729499.0	0.132458	0.606649
     29652.52	0.15769	2046538.0	1792727.0	977630.0	0.132412	0.606362
     29653.03	0.11014	1426134.0	1249509.0	681361.0	0.132217	0.606414
     29653.53	0.12579	1623487.0	1422034.0	775592.0	0.132488	0.606217
     29654.04	0.10583	1362774.0	1194072.0	651274.0	0.132153	0.606194
     29654.54	0.12434	1611514.0	1412023.0	770281.0	0.132151	0.606023
     29655.05	0.13073	1689798.0	1480480.0	807846.0	0.132243	0.605750
     29655.56	0.13767	1789461.0	1567999.0	855609.0	0.132114	0.605742
     29656.06	0.11391	1478115.0	1295103.0	706741.0	0.132177	0.605681
     29656.57	0.15864	2065089.0	1809053.0	987021.0	0.132370	0.605867
     29657.07	0.091919	1193641.0	1046089.0	570657.0	0.131950	0.606025
     29657.58	0.10392	1357833.0	1189807.0	649494.0	0.132099	0.605353
     29658.09	0.10223	1325269.0	1161476.0	633690.0	0.131924	0.605887
     29658.59	0.12210	1571565.0	1377327.0	751688.0	0.131927	0.605579
     29659.10	0.11437	1498407.0	1313202.0	717055.0	0.131934	0.605071
     29659.60	0.12041	1565792.0	1371894.0	748679.0	0.132199	0.605637
     29660.11	0.12077	1588416.0	1392192.0	760062.0	0.131858	0.605235
     29660.62	0.12413	1583372.0	1387480.0	757579.0	0.132068	0.605117
     29661.12	0.12371	1602279.0	1404567.0	767186.0	0.131698	0.604755
     29661.63	0.11460	1457225.0	1277258.0	697483.0	0.131818	0.604993
     29662.13	0.13139	1700633.0	1490722.0	814007.0	0.131740	0.605047
     29662.64	0.13153	1693962.0	1484771.0	810988.0	0.131810	0.604763
     29663.15	0.13139	1694948.0	1486007.0	811622.0	0.131559	0.604813
     29663.65	0.12919	1686105.0	1477728.0	807008.0	0.131915	0.604927
     29664.16	0.13785	1804338.0	1581895.0	863928.0	0.131570	0.604889
     29664.66	0.16744	2183722.0	1914028.0	1045839.0	0.131821	0.604390
     29665.17	0.15090	1973341.0	1729857.0	944831.0	0.131689	0.604788
     29665.68	0.086131	1113254.0	975883.0	533264.0	0.131700	0.604326
     29666.18	0.095961	1221841.0	1070914.0	585156.0	0.131846	0.604389
     29666.69	0.13330	1759876.0	1543132.0	843356.0	0.131429	0.604180
     29667.19	0.13159	1725477.0	1512848.0	826951.0	0.131510	0.604004
     29667.70	0.13461	1775311.0	1556459.0	850461.0	0.131562	0.604390
     29668.21	0.14754	1923762.0	1687083.0	922282.0	0.131282	0.603905
     29668.71	0.13648	1775726.0	1557156.0	851488.0	0.131348	0.603631
     29669.22	0.11765	1526140.0	1338179.0	731631.0	0.131432	0.603789
     29669.73	0.12242	1565053.0	1372362.0	750525.0	0.131386	0.603516
     29670.23	0.13350	1716115.0	1504897.0	823136.0	0.131339	0.603358
     29670.74	0.13630	1797167.0	1576110.0	862097.0	0.131252	0.603347
     29671.25	0.12922	1677145.0	1470598.0	804251.0	0.131424	0.603513
     29671.75	0.13187	1724245.0	1512151.0	827307.0	0.131256	0.603113
     29672.26	0.13069	1743456.0	1528905.0	836305.0	0.131318	0.603314
     29672.76	0.13694	1829663.0	1604702.0	878004.0	0.131194	0.603042
     29673.27	0.11059	1477754.0	1296475.0	709113.0	0.130874	0.603389
     29673.78	0.12389	1627057.0	1427003.0	781081.0	0.131196	0.602653
     29674.28	0.12784	1662688.0	1458651.0	798316.0	0.130924	0.602763
     29674.79	0.12450	1633740.0	1432946.0	784465.0	0.131139	0.602486
     29675.30	0.12628	1639622.0	1438124.0	787674.0	0.131126	0.602010
     29675.80	0.11914	1571844.0	1379053.0	754884.0	0.130852	0.602588
     29676.31	0.13171	1743080.0	1528893.0	837078.0	0.131110	0.602382
     29676.82	0.13381	1777105.0	1558890.0	854137.0	0.131012	0.601638
     29677.32	0.11891	1563422.0	1371301.0	750839.0	0.131117	0.602324
     29677.83	0.10857	1419196.0	1245588.0	682002.0	0.130483	0.602330
     29678.34	0.13109	1741994.0	1528152.0	837145.0	0.130971	0.601817
     29678.84	0.11575	1530724.0	1343056.0	735839.0	0.130793	0.601692
     29679.35	0.12117	1582608.0	1388525.0	760655.0	0.130832	0.601817
     29679.86	0.11769	1507435.0	1322622.0	724663.0	0.130793	0.601665
     29680.36	0.11749	1584254.0	1390363.0	761794.0	0.130549	0.601644
     29680.87	0.11513	1487098.0	1304695.0	714890.0	0.130857	0.601596
     29681.38	0.13064	1719756.0	1509280.0	827029.0	0.130550	0.601548
     29681.88	0.12549	1659230.0	1456135.0	798145.0	0.130568	0.601251
     29682.39	0.14055	1837966.0	1612886.0	883804.0	0.130634	0.601545
     29682.90	0.13147	1705595.0	1496976.0	820797.0	0.130467	0.600927
     29683.40	0.13138	1712481.0	1502476.0	823974.0	0.130829	0.600731
     29683.91	0.12291	1651029.0	1448856.0	794163.0	0.130624	0.601241
     29684.42	0.13147	1730346.0	1518604.0	832853.0	0.130530	0.600690
     29684.92	0.12305	1613262.0	1415584.0	776396.0	0.130716	0.600635
     29685.43	0.12600	1668014.0	1464250.0	803239.0	0.130291	0.600446
     29685.94	0.11535	1511679.0	1326423.0	727424.0	0.130735	0.600732
     29686.44	0.12935	1699846.0	1492027.0	818651.0	0.130402	0.600233
     29686.95	0.12956	1720859.0	1510872.0	828951.0	0.130137	0.600281
     29687.46	0.12787	1666770.0	1463423.0	802985.0	0.130109	0.600197
     29687.97	0.12500	1671159.0	1467201.0	804896.0	0.130161	0.600399
     29688.47	0.11365	1482827.0	1301806.0	714756.0	0.130198	0.599567
     29688.98	0.13401	1738879.0	1526620.0	837728.0	0.130185	0.600118
     29689.49	0.12789	1677993.0	1472825.0	808455.0	0.130416	0.599813
     29689.99	0.13479	1756266.0	1542061.0	846696.0	0.130070	0.599533
     29690.50	0.12164	1585430.0	1392010.0	764365.0	0.130107	0.599459
     29691.01	0.13119	1723704.0	1513511.0	831118.0	0.130043	0.599416
     29691.51	0.12672	1666947.0	1463804.0	804053.0	0.129955	0.599129
     29692.02	0.13724	1763894.0	1548888.0	850782.0	0.129987	0.599137
     29692.53	0.11968	1552184.0	1362787.0	748596.0	0.130131	0.599088
     29693.04	0.12697	1686055.0	1480993.0	813646.0	0.129679	0.598943
     29693.54	0.11545	1520637.0	1335415.0	733683.0	0.129887	0.598920
     29694.05	0.12885	1677836.0	1473158.0	809644.0	0.130096	0.598569
     29694.56	0.13031	1678241.0	1473712.0	810010.0	0.129962	0.598493
     29695.06	0.12021	1580276.0	1388232.0	762898.0	0.129569	0.598662
     29695.57	0.11627	1499361.0	1316700.0	724162.0	0.129910	0.597869
     29696.08	0.12895	1686532.0	1481380.0	814557.0	0.129700	0.598085
     29696.59	0.11360	1487935.0	1306793.0	718609.0	0.129813	0.598014
     29697.09	0.11493	1521458.0	1336103.0	734849.0	0.129912	0.597847
     29697.60	0.10902	1447375.0	1271207.0	699038.0	0.129785	0.598017
     29698.11	0.12488	1620225.0	1423323.0	782910.0	0.129571	0.597732
     29698.62	0.10770	1424331.0	1250852.0	688357.0	0.129877	0.597273
     29699.12	0.12328	1598971.0	1404463.0	772975.0	0.129705	0.597164
     29699.63	0.10270	1316064.0	1156089.0	636083.0	0.129603	0.597469
     29700.14	0.13061	1736479.0	1525331.0	839616.0	0.129648	0.597022
     29700.65	0.11905	1552425.0	1363964.0	750839.0	0.129423	0.596959
     29701.15	0.12388	1644559.0	1444624.0	795274.0	0.129623	0.596918
     29701.66	0.13018	1680058.0	1475668.0	812509.0	0.129718	0.596739
     29702.17	0.11871	1539845.0	1353185.0	745075.0	0.129221	0.596731
     29702.67	0.14116	1836295.0	1613568.0	888500.0	0.129302	0.596669
     29703.18	0.11777	1549443.0	1361374.0	750020.0	0.129401	0.596150
     29703.69	0.13318	1742919.0	1531789.0	843742.0	0.129125	0.596345
     29704.20	0.14174	1856759.0	1631378.0	899026.0	0.129407	0.595868
     29704.70	0.11639	1536767.0	1350979.0	744262.0	0.128851	0.596192
     29705.21	0.12941	1673814.0	1470817.0	810545.0	0.129287	0.595866
     29705.72	0.13892	1841890.0	1619012.0	892413.0	0.128976	0.595642
     29706.23	0.12851	1688982.0	1484513.0	818196.0	0.129039	0.595740
     29706.74	0.13267	1737261.0	1526401.0	841337.0	0.129397	0.595676
     29707.24	0.12339	1612284.0	1417034.0	781715.0	0.129086	0.594831
     29707.75	0.13520	1772077.0	1557235.0	858844.0	0.129240	0.595080
     29708.26	0.12572	1633003.0	1435323.0	791750.0	0.129031	0.594900
     29708.77	0.14419	1889965.0	1661450.0	916447.0	0.128868	0.594942
     29709.27	0.12381	1602488.0	1408358.0	777026.0	0.129133	0.594706
     29709.78	0.13942	1813141.0	1593883.0	879266.0	0.128888	0.594841
     29710.29	0.12732	1641955.0	1443269.0	796593.0	0.128977	0.594322
     29710.80	0.13988	1815728.0	1596213.0	880894.0	0.128853	0.594452
     29711.30	0.12828	1655384.0	1455002.0	803226.0	0.129026	0.594126
     29711.81	0.12704	1648221.0	1449091.0	799998.0	0.128760	0.594083
     29712.32	0.13773	1761667.0	1548711.0	855309.0	0.128838	0.593715
     29712.83	0.11735	1529041.0	1344572.0	742454.0	0.128565	0.593870
     29713.34	0.12978	1692775.0	1488392.0	822086.0	0.128673	0.593607
     29713.84	0.12283	1601051.0	1407656.0	777990.0	0.128734	0.592968
     29714.35	0.12457	1657639.0	1457344.0	805131.0	0.128779	0.593366
     29714.86	0.12882	1683477.0	1479941.0	818094.0	0.128859	0.592780
     29715.37	0.12346	1621068.0	1425194.0	787497.0	0.128777	0.593204
     29715.88	0.12281	1605722.0	1412054.0	780449.0	0.128528	0.592931
     29716.38	0.12976	1695062.0	1490296.0	824168.0	0.128745	0.592356
     29716.89	0.12585	1618475.0	1423140.0	787158.0	0.128619	0.592192
     29717.40	0.11642	1517681.0	1334657.0	737986.0	0.128509	0.592505
     29717.91	0.12553	1622508.0	1427096.0	789666.0	0.128331	0.591787
     29718.41	0.12694	1644610.0	1445877.0	799825.0	0.128787	0.592078
     29718.92	0.12461	1610176.0	1415730.0	783338.0	0.128698	0.591836
     29719.43	0.11199	1476265.0	1298681.0	718249.0	0.128166	0.592288
     29719.94	0.12949	1700279.0	1495123.0	827341.0	0.128584	0.591747
     29720.45	0.11215	1490816.0	1311161.0	725689.0	0.128411	0.591547
     29720.96	0.11742	1548521.0	1362447.0	754227.0	0.128018	0.591344
     29721.46	0.12829	1681579.0	1479081.0	818829.0	0.128312	0.591301
     29721.97	0.12537	1681263.0	1479042.0	818849.0	0.128151	0.591250
     29722.48	0.13183	1755805.0	1544572.0	855159.0	0.128181	0.591215
     29722.99	0.12596	1702359.0	1497630.0	829339.0	0.128131	0.591010
     29723.50	0.14444	1912419.0	1682635.0	931922.0	0.128008	0.590867
     29724.00	0.13793	1831823.0	1611102.0	892805.0	0.128393	0.590306
     29724.51	0.11994	1587370.0	1396535.0	773865.0	0.128084	0.590352
     29725.02	0.11854	1543863.0	1358187.0	752690.0	0.128137	0.590253
     29725.53	0.12758	1691224.0	1487613.0	824625.0	0.128280	0.589999
     29726.04	0.12198	1599631.0	1407078.0	780105.0	0.128258	0.589842
     29726.55	0.12397	1654025.0	1455107.0	806960.0	0.128132	0.589561
     29727.05	0.12044	1573480.0	1384368.0	767825.0	0.128046	0.589437
     29727.56	0.12781	1691521.0	1488466.0	825355.0	0.127882	0.589688
     29728.07	0.13344	1769539.0	1556488.0	863261.0	0.128287	0.589470
     29728.58	0.12860	1682246.0	1480379.0	821176.0	0.127832	0.589316
     29729.09	0.11639	1547064.0	1361119.0	755181.0	0.128052	0.589105
     29729.60	0.12869	1714289.0	1508686.0	837015.0	0.127759	0.589152
     29730.10	0.13365	1763562.0	1552094.0	861575.0	0.127731	0.588598
     29730.61	0.12882	1690333.0	1487203.0	825502.0	0.128028	0.588661
     29731.12	0.12728	1664139.0	1464372.0	813063.0	0.127881	0.588373
     29731.63	0.13762	1822102.0	1603499.0	890614.0	0.127803	0.588032
     29732.14	0.19295	2516714.0	2214889.0	1230141.0	0.127752	0.588073
     29732.65	0.12642	1650046.0	1452305.0	806438.0	0.127651	0.588280
     29733.15	0.066974	893101.0	786103.0	436838.0	0.127612	0.587525
     29733.66	0.11366	1488021.0	1309805.0	727496.0	0.127569	0.588025
     29734.17	0.12252	1604583.0	1412478.0	784961.0	0.127518	0.587467
     29734.68	0.11966	1559281.0	1372197.0	762555.0	0.127812	0.587494
     29735.19	0.12924	1712611.0	1507591.0	837909.0	0.127506	0.587359
     29735.70	0.13414	1742074.0	1533820.0	852633.0	0.127315	0.587187
     29736.21	0.16557	2210810.0	1945730.0	1081591.0	0.127722	0.587204
     29736.71	0.13297	1748926.0	1539179.0	855788.0	0.127753	0.586982
     29737.22	0.063727	833604.0	733899.0	408154.0	0.127387	0.586727
     29737.73	0.098917	1293275.0	1138114.0	632845.0	0.127805	0.586902
     29738.24	0.11159	1458510.0	1283790.0	714050.0	0.127599	0.586619
     29738.75	0.11009	1426973.0	1256199.0	698797.0	0.127465	0.586485
     29739.26	0.13456	1736402.0	1528645.0	850442.0	0.127433	0.586381
     29739.77	0.14532	1909043.0	1680755.0	935464.0	0.127359	0.585956
     29740.28	0.13962	1811879.0	1595204.0	887508.0	0.127363	0.586339
     29740.78	0.10271	1361769.0	1199043.0	667461.0	0.127261	0.585798
     29741.29	0.077232	1027849.0	904953.0	503718.0	0.127341	0.585866
     29741.80	0.13139	1702738.0	1499525.0	834903.0	0.127089	0.585588
     29742.31	0.12437	1626033.0	1431596.0	797377.0	0.127353	0.585218
     29742.82	0.12281	1573972.0	1386320.0	771870.0	0.126950	0.585592
     29743.33	0.14586	1888553.0	1662923.0	926352.0	0.127234	0.585078
     29743.84	0.13365	1721751.0	1516066.0	844529.0	0.127223	0.585095
     29744.35	0.12874	1694140.0	1491945.0	831119.0	0.127095	0.585063
     29744.86	0.11914	1550407.0	1365381.0	761146.0	0.127084	0.584364
     29745.36	0.13651	1768524.0	1557340.0	867747.0	0.127166	0.584834
     29745.87	0.11494	1483827.0	1306894.0	728431.0	0.126971	0.584516
     29746.38	0.13137	1708880.0	1505048.0	838887.0	0.127013	0.584504
     29746.89	0.13053	1715464.0	1511461.0	842667.0	0.126607	0.584260
     29747.40	0.15088	1987291.0	1750480.0	976267.0	0.126882	0.583909
     29747.91	0.14097	1849213.0	1629248.0	908435.0	0.126642	0.584150
     29748.42	0.14063	1821577.0	1604779.0	895172.0	0.126717	0.583725
     29748.93	0.10241	1350752.0	1190086.0	664019.0	0.126636	0.583470
     29749.44	0.13368	1731961.0	1525951.0	851089.0	0.126636	0.583856
     29749.95	0.12462	1631465.0	1437462.0	802205.0	0.126599	0.583270
     29750.45	0.13348	1732035.0	1525866.0	851480.0	0.126735	0.583341
     29750.96	0.13249	1722366.0	1517642.0	846709.0	0.126541	0.583556
     29751.47	0.13635	1768278.0	1557790.0	869385.0	0.126738	0.583237
     29751.98	0.19841	2547351.0	2244567.0	1253074.0	0.126541	0.582913
     29752.49	0.10377	1329473.0	1171809.0	654128.0	0.126234	0.583001
     29753.00	0.074978	976312.0	860020.0	480232.0	0.126827	0.582686
     29753.51	0.11738	1520754.0	1340166.0	748292.0	0.126413	0.582755
     29754.02	0.13016	1683510.0	1483485.0	828496.0	0.126487	0.582537
     29754.53	0.11943	1537746.0	1354849.0	756824.0	0.126628	0.582315
     29755.04	0.13512	1724805.0	1520503.0	849279.0	0.126073	0.582409
     29755.55	0.13069	1690383.0	1489710.0	832354.0	0.126374	0.582079
     29756.06	0.15653	2028065.0	1788098.0	998760.0	0.125930	0.582393
     29756.57	0.096928	1278463.0	1127078.0	629721.0	0.126030	0.582107
     29757.07	0.11666	1498183.0	1320366.0	737937.0	0.126344	0.581806
     29757.58	0.11986	1553836.0	1369926.0	765541.0	0.125970	0.581929
     29758.09	0.11916	1538358.0	1355917.0	757662.0	0.126238	0.581996
     29758.60	0.12400	1626080.0	1433570.0	801319.0	0.126004	0.581664
     29759.11	0.12536	1616152.0	1424148.0	796475.0	0.126474	0.581133
     29759.62	0.11527	1490811.0	1314581.0	734812.0	0.125802	0.581659
     29760.13	0.12567	1607163.0	1417296.0	792316.0	0.125720	0.581546
     29760.64	0.12249	1569547.0	1383587.0	774201.0	0.126108	0.580603
     29761.15	0.11589	1480076.0	1305034.0	729767.0	0.125864	0.581259
     29761.66	0.12907	1663283.0	1466173.0	820486.0	0.126138	0.580514
     29762.17	0.12223	1597227.0	1408402.0	787895.0	0.125813	0.580846
     29762.68	0.13345	1751816.0	1544471.0	864003.0	0.125972	0.580860
     29763.19	0.12186	1549140.0	1365498.0	764085.0	0.126181	0.580595
     29763.70	0.13758	1792378.0	1580640.0	884371.0	0.125713	0.580708
     29764.21	0.13242	1701814.0	1500884.0	839797.0	0.125640	0.580649
     29764.72	0.12025	1591428.0	1403806.0	785740.0	0.125445	0.580316
     29765.23	0.11422	1468467.0	1294881.0	724669.0	0.125800	0.580459
     29765.74	0.12866	1684286.0	1485681.0	831979.0	0.125468	0.579821
     29766.25	0.12717	1667212.0	1470803.0	823408.0	0.125344	0.580112
     29766.76	0.13035	1676641.0	1478756.0	827823.0	0.125591	0.580157
     29767.26	0.12130	1553865.0	1370754.0	767229.0	0.125384	0.580331
     29767.77	0.13099	1693009.0	1493290.0	836550.0	0.125526	0.579451
     29768.28	0.12781	1647009.0	1452695.0	813534.0	0.125540	0.579788
     29768.79	0.12980	1687225.0	1488335.0	833676.0	0.125427	0.579568
     29769.30	0.12833	1676209.0	1478938.0	828429.0	0.125210	0.579548
     29769.81	0.12391	1589112.0	1401917.0	785661.0	0.125335	0.579070
     29770.32	0.13432	1724355.0	1520874.0	852413.0	0.125568	0.578969
     29770.83	0.12728	1616823.0	1426215.0	798969.0	0.125439	0.579457
     29771.34	0.13125	1693236.0	1493711.0	837161.0	0.125378	0.579003
     29771.85	0.12203	1589992.0	1402540.0	786088.0	0.125444	0.578971
     29772.36	0.13064	1636666.0	1443879.0	809416.0	0.125328	0.578776
     29772.87	0.12180	1569811.0	1384992.0	776365.0	0.125261	0.578827
     29773.38	0.13117	1728632.0	1525357.0	854918.0	0.125102	0.578978
     29773.89	0.12106	1582616.0	1396207.0	782580.0	0.125320	0.578918
     29774.40	0.12520	1610791.0	1421239.0	796833.0	0.125196	0.578639
     29774.91	0.12092	1594583.0	1407207.0	788957.0	0.125005	0.578650
     29775.42	0.13514	1770909.0	1562448.0	876264.0	0.125239	0.578342
     29775.93	0.10672	1393254.0	1229189.0	689380.0	0.125287	0.578317
     29776.44	0.11871	1546565.0	1364796.0	765680.0	0.125031	0.577996
     29776.95	0.11893	1558324.0	1375229.0	771329.0	0.124991	0.578261
     29777.46	0.11045	1421654.0	1254342.0	703774.0	0.125210	0.577909
     29777.97	0.11948	1547829.0	1366587.0	766853.0	0.124537	0.577777
     29778.48	0.11371	1482337.0	1308323.0	733985.0	0.124874	0.578013
     29778.99	0.11447	1513472.0	1335766.0	749496.0	0.124901	0.577859
     29779.50	0.12904	1743808.0	1539256.0	863638.0	0.124772	0.577901
     29780.01	0.12005	1590482.0	1403770.0	787875.0	0.124876	0.577577
     29780.52	0.10316	1371389.0	1210503.0	679504.0	0.124788	0.577428
     29781.03	0.11904	1549123.0	1367622.0	767692.0	0.124615	0.577440
     29781.54	0.12177	1570843.0	1386213.0	778126.0	0.125037	0.577442
     29782.05	0.13830	1782056.0	1573320.0	883273.0	0.124580	0.577309
     29782.56	0.12961	1680386.0	1483181.0	832441.0	0.124834	0.577582
     29783.07	0.14353	1869396.0	1650296.0	926852.0	0.124661	0.576916
     29783.58	0.12689	1649951.0	1456753.0	817860.0	0.124536	0.577274
     29784.09	0.12976	1698281.0	1498831.0	841618.0	0.124931	0.577115
     29784.60	0.10806	1390004.0	1227303.0	689067.0	0.124488	0.577236
     29785.12	0.14156	1825643.0	1612307.0	905648.0	0.124266	0.576771
     29785.63	0.12136	1580913.0	1395678.0	784186.0	0.124622	0.576489
     29786.14	0.13587	1747792.0	1543173.0	867087.0	0.124513	0.576457
     29786.65	0.12837	1657932.0	1463681.0	822333.0	0.124617	0.576564
     29787.16	0.13443	1731595.0	1528825.0	858859.0	0.124543	0.576650
     29787.67	0.13153	1716324.0	1515970.0	851754.0	0.124129	0.576513
     29788.18	0.12466	1588182.0	1402450.0	788302.0	0.124369	0.576095
     29788.69	0.14191	1823704.0	1610384.0	905034.0	0.124397	0.576255
     29789.20	0.13512	1735712.0	1532748.0	861446.0	0.124356	0.576205
     29789.71	0.13958	1765746.0	1559182.0	876623.0	0.124412	0.575840
     29790.22	0.13724	1736374.0	1533456.0	861782.0	0.124275	0.576277
     29790.73	0.12176	1588049.0	1402651.0	788346.0	0.124142	0.576182
     29791.24	0.13089	1677656.0	1481739.0	833245.0	0.124181	0.575644
     29791.75	0.12439	1592028.0	1405979.0	790438.0	0.124275	0.575902
     29792.26	0.12810	1640631.0	1449223.0	815059.0	0.124053	0.575522
     29792.77	0.12249	1558235.0	1376066.0	774043.0	0.124325	0.575357
     29793.28	0.13085	1715053.0	1514824.0	852167.0	0.124145	0.575272
     29793.79	0.12923	1645979.0	1454185.0	817740.0	0.123890	0.575656
     29794.30	0.12920	1634709.0	1444190.0	812586.0	0.123916	0.575082
     29794.81	0.13426	1760680.0	1555752.0	875449.0	0.123741	0.574977
     29795.32	0.10802	1390365.0	1228375.0	691157.0	0.123874	0.575080
     29795.84	0.12194	1581824.0	1397506.0	786388.0	0.123889	0.574994
     29796.35	0.12218	1571853.0	1388478.0	781561.0	0.124047	0.574670
     29796.86	0.12771	1643180.0	1452179.0	817852.0	0.123568	0.574139
     29797.37	0.12628	1653018.0	1460842.0	822201.0	0.123590	0.574783
     29797.88	0.12589	1613185.0	1425314.0	802386.0	0.123818	0.574558
     29798.39	0.11509	1498117.0	1324208.0	745640.0	0.123394	0.574327
     29798.90	0.12343	1584173.0	1399599.0	787977.0	0.123877	0.574472
     29799.41	0.12137	1522080.0	1344992.0	757236.0	0.123690	0.574468
     29799.92	0.11121	1398878.0	1236465.0	696346.0	0.123414	0.574165
     29800.43	0.12793	1664126.0	1470573.0	827903.0	0.123648	0.574511
     29800.94	0.11749	1487053.0	1314119.0	740431.0	0.123630	0.573689
     29801.45	0.13046	1701930.0	1504528.0	847463.0	0.123284	0.573987
     29801.97	0.13950	1770467.0	1564596.0	881396.0	0.123616	0.573876
     29802.48	0.11950	1520540.0	1344215.0	757521.0	0.123255	0.573514
     29802.99	0.13711	1742121.0	1539302.0	867868.0	0.123774	0.573045
     29803.50	0.13165	1653709.0	1461293.0	823690.0	0.123699	0.573283
     29804.01	0.12165	1557313.0	1376569.0	775588.0	0.123368	0.573728
     29804.52	0.12295	1576603.0	1393654.0	785650.0	0.123343	0.573173
     29805.03	0.12250	1553640.0	1373198.0	774226.0	0.123458	0.573034
     29805.54	0.13209	1694788.0	1497926.0	844517.0	0.123476	0.573072
     29806.05	0.11700	1503293.0	1329061.0	749274.0	0.123185	0.573123
     29806.56	0.12963	1658257.0	1465882.0	826653.0	0.123310	0.572827
     29807.07	0.12555	1590911.0	1406292.0	793599.0	0.123350	0.572133
     29807.59	0.22069	2773240.0	2451381.0	1382551.0	0.123365	0.572721
     29808.10	0.092495	1172894.0	1036871.0	584850.0	0.123267	0.572607
     29808.61	0.10373	1330595.0	1176505.0	663760.0	0.123078	0.572383
     29809.12	0.092787	1198775.0	1059775.0	598138.0	0.123244	0.571990
     29809.63	0.12719	1616299.0	1429185.0	806595.0	0.123035	0.572038
     29810.14	0.16847	2166341.0	1915629.0	1081488.0	0.122994	0.571708
     29810.65	0.13745	1729367.0	1529024.0	863066.0	0.123126	0.571894
     29811.16	0.075389	959483.0	848387.0	478754.0	0.123058	0.572150
     29811.68	0.14038	1809381.0	1600158.0	903540.0	0.122882	0.571537
     29812.19	0.11681	1503967.0	1330080.0	750978.0	0.122867	0.571618
     29812.70	0.12486	1587275.0	1403578.0	792633.0	0.122994	0.571420
     29813.21	0.11521	1489654.0	1317073.0	743751.0	0.123132	0.571461
     29813.72	0.12542	1634524.0	1445918.0	816632.0	0.122607	0.571311
     29814.23	0.14310	1851260.0	1636819.0	924956.0	0.123112	0.570764
     29814.74	0.12855	1631968.0	1442908.0	815420.0	0.123126	0.570712
     29815.25	0.11213	1422841.0	1258786.0	711315.0	0.122508	0.570788
     29815.77	0.13895	1790022.0	1583034.0	894633.0	0.122885	0.570685
     29816.28	0.098822	1273759.0	1126938.0	636821.0	0.122468	0.570771
     29816.79	0.11125	1395958.0	1234774.0	698311.0	0.122693	0.569979
     29817.30	0.11151	1408876.0	1246266.0	704677.0	0.122640	0.570168
     29817.81	0.12705	1626334.0	1438443.0	813139.0	0.122767	0.570414
     29818.32	0.11349	1445631.0	1278746.0	723216.0	0.122666	0.569927
     29818.83	0.12497	1612353.0	1425991.0	806188.0	0.122828	0.570305
     29819.35	0.12253	1567004.0	1386495.0	784143.0	0.122387	0.569943
     29819.86	0.12635	1605044.0	1420217.0	803157.0	0.122341	0.570015
     29820.37	0.096585	1223749.0	1082924.0	612408.0	0.122254	0.570021
     29820.88	0.11604	1498874.0	1326063.0	750314.0	0.122500	0.569478
     29821.39	0.12057	1568660.0	1387551.0	785361.0	0.122681	0.569152
     29821.90	0.13435	1736049.0	1536575.0	869753.0	0.122056	0.569102
     29822.42	0.13726	1725916.0	1526899.0	864230.0	0.122519	0.569155
     29822.93	0.13832	1738268.0	1538056.0	870818.0	0.122370	0.568842
     29823.44	0.16263	2059887.0	1822595.0	1031851.0	0.122390	0.568907
     29823.95	0.10694	1360039.0	1203801.0	681337.0	0.122029	0.569182
     29824.46	0.10397	1311448.0	1160137.0	657250.0	0.122594	0.568229
     29824.97	0.13217	1661003.0	1470251.0	832422.0	0.121989	0.568849
     29825.49	0.12712	1632179.0	1444416.0	818195.0	0.122211	0.568360
     29826.00	0.13010	1654598.0	1464195.0	829487.0	0.122252	0.568253
     29826.51	0.12749	1623526.0	1436964.0	814118.0	0.122068	0.568183
     29827.02	0.13411	1706385.0	1510342.0	855612.0	0.122041	0.568274
     29827.53	0.15424	1973397.0	1746628.0	989660.0	0.122069	0.568081
     29828.04	0.10076	1309360.0	1159131.0	656920.0	0.121868	0.567864
     29828.56	0.13245	1720843.0	1523185.0	863574.0	0.122011	0.567479
     29829.07	0.13426	1737781.0	1538237.0	871452.0	0.121972	0.568231
     29829.58	0.13642	1764224.0	1561542.0	885438.0	0.122037	0.567347
     29830.09	0.13897	1794262.0	1587857.0	900220.0	0.122208	0.567501
     29830.60	0.12611	1614809.0	1429451.0	810038.0	0.121926	0.567965
     29831.11	0.14395	1840570.0	1628700.0	923397.0	0.122293	0.567478
     29831.63	0.13438	1709592.0	1513400.0	858537.0	0.121896	0.566884
     29832.14	0.12039	1503831.0	1331619.0	755208.0	0.121620	0.567158
     29832.65	0.12437	1555128.0	1376867.0	781290.0	0.121747	0.566620
     29833.16	0.12438	1581543.0	1400685.0	794669.0	0.121440	0.566791
     29833.67	0.12954	1657750.0	1467934.0	832963.0	0.121605	0.566622
     29834.19	0.12385	1611236.0	1426450.0	809592.0	0.121813	0.566414
     29834.70	0.12641	1628793.0	1442171.0	818386.0	0.121690	0.566571
     29835.21	0.12836	1581420.0	1400254.0	794645.0	0.121670	0.566513
     29835.72	0.13312	1733455.0	1535121.0	871235.0	0.121507	0.566453
     29836.23	0.11686	1492978.0	1322267.0	750662.0	0.121425	0.566147
     29836.75	0.12169	1541113.0	1364273.0	775052.0	0.121883	0.565447
     29837.26	0.13033	1674623.0	1483203.0	842377.0	0.121384	0.565732
     29837.77	0.11183	1468276.0	1300533.0	738601.0	0.121315	0.565772
     29838.28	0.12940	1682629.0	1490124.0	846438.0	0.121498	0.565578
     29838.80	0.12016	1489980.0	1319807.0	750053.0	0.121277	0.565097
     29839.31	0.12205	1585522.0	1404440.0	797931.0	0.121275	0.565372
     29839.82	0.12532	1571111.0	1391316.0	790667.0	0.121533	0.565128
     29840.33	0.11917	1507410.0	1334699.0	758816.0	0.121687	0.564702
     29840.84	0.12091	1500708.0	1329240.0	755909.0	0.121330	0.564442
     29841.36	0.11810	1495027.0	1324138.0	752928.0	0.121383	0.564547
     29841.87	0.12726	1595043.0	1412764.0	803545.0	0.121353	0.564270
     29842.38	0.12640	1612599.0	1428531.0	812148.0	0.121201	0.564719
     29842.89	0.13136	1623905.0	1438358.0	818287.0	0.121332	0.564044
     29843.41	0.13264	1648405.0	1460548.0	830710.0	0.120996	0.564286
     29843.92	0.12821	1592353.0	1410611.0	802532.0	0.121190	0.564006
     29844.43	0.12447	1560814.0	1382578.0	786833.0	0.121258	0.563689
     29844.94	0.11815	1466310.0	1299346.0	739422.0	0.120888	0.563748
     29845.46	0.12882	1644130.0	1457067.0	829159.0	0.120786	0.563769
     29845.97	0.12828	1580353.0	1399963.0	796594.0	0.121202	0.563856
     29846.48	0.12136	1524338.0	1351158.0	768907.0	0.120598	0.563747
     29846.99	0.13052	1620757.0	1435833.0	817256.0	0.121148	0.563548
     29847.50	0.12175	1523714.0	1350443.0	768747.0	0.120718	0.563426
     29848.02	0.13260	1666669.0	1477174.0	841475.0	0.120696	0.562730
     29848.53	0.11472	1455785.0	1290190.0	734842.0	0.120756	0.562889
     29849.04	0.12539	1543278.0	1367399.0	779209.0	0.120998	0.562386
     29849.56	0.12162	1543198.0	1367820.0	778886.0	0.120639	0.563109
     29850.07	0.14178	1825246.0	1617665.0	921449.0	0.120731	0.562792
     29850.58	0.12974	1655819.0	1467642.0	836342.0	0.120639	0.562375
     29851.09	0.13252	1687482.0	1495655.0	852477.0	0.120673	0.562173
     29851.61	0.12267	1556799.0	1379781.0	786603.0	0.120707	0.561956
     29852.12	0.13411	1658073.0	1469450.0	837442.0	0.120768	0.562291
     29852.63	0.12881	1630508.0	1445005.0	823666.0	0.120779	0.562103
     29853.14	0.11985	1481060.0	1312558.0	748483.0	0.120780	0.561685
     29853.66	0.12725	1588052.0	1408064.0	802745.0	0.120292	0.561934
     29854.17	0.13144	1658581.0	1470178.0	838291.0	0.120579	0.561773
     29854.68	0.11983	1506506.0	1335383.0	761675.0	0.120575	0.561453
     29855.19	0.13168	1654854.0	1467164.0	836642.0	0.120382	0.561690
     29855.71	0.12799	1594061.0	1412324.0	805773.0	0.121048	0.561190
     29856.22	0.10615	1325442.0	1175176.0	670396.0	0.120328	0.561305
     29856.73	0.12261	1546870.0	1371271.0	782457.0	0.120495	0.561054
     29857.25	0.11902	1505617.0	1334986.0	761857.0	0.120282	0.560917
     29857.76	0.11466	1431149.0	1268905.0	724314.0	0.120323	0.560685
     29858.27	0.13010	1623122.0	1438857.0	821595.0	0.120502	0.560357
     29858.78	0.10905	1347707.0	1195000.0	681985.0	0.120258	0.560894
     29859.30	0.11750	1480165.0	1312430.0	749249.0	0.120273	0.560564
     29859.81	0.13159	1646276.0	1460002.0	833599.0	0.120078	0.560441
     29860.32	0.097374	1233070.0	1093423.0	624499.0	0.120194	0.560119
     29860.84	0.11509	1446850.0	1283109.0	733213.0	0.120103	0.559605
     29861.35	0.12915	1590863.0	1410488.0	805627.0	0.120341	0.560070
     29861.86	0.12207	1536850.0	1362899.0	778534.0	0.120121	0.559957
     29862.37	0.12622	1609369.0	1426647.0	815242.0	0.120515	0.559597
     29862.89	0.12243	1532794.0	1359159.0	776781.0	0.120226	0.559463
     29863.40	0.14041	1780387.0	1579035.0	902345.0	0.120017	0.559572
     29863.91	0.12092	1549238.0	1374706.0	785529.0	0.119523	0.559638
     29864.43	0.12374	1584494.0	1405321.0	803355.0	0.119999	0.559224
     29864.94	0.13563	1742794.0	1546050.0	883545.0	0.119786	0.559516
     29865.45	0.12401	1562959.0	1386426.0	793045.0	0.119852	0.558605
     29865.97	0.13628	1726709.0	1532297.0	875966.0	0.119449	0.559196
     29866.48	0.12809	1631974.0	1447333.0	828045.0	0.120068	0.558410
     29866.99	0.12749	1575220.0	1397116.0	799137.0	0.119985	0.558633
     29867.50	0.13541	1699480.0	1507901.0	862525.0	0.119604	0.558610
     29868.02	0.11743	1483065.0	1315946.0	752812.0	0.119555	0.558496
     29868.53	0.13701	1726561.0	1531533.0	876068.0	0.119862	0.558581
     29869.04	0.12547	1571568.0	1394104.0	797532.0	0.119822	0.558485
     29869.56	0.13755	1747547.0	1550104.0	887486.0	0.119891	0.557685
     29870.07	0.13186	1656032.0	1469250.0	841043.0	0.119672	0.557865
     29870.58	0.13234	1665765.0	1477544.0	845749.0	0.119903	0.557914
     29871.10	0.12537	1542482.0	1368633.0	783718.0	0.119580	0.557518
     29871.61	0.15098	1901166.0	1686917.0	965583.0	0.119565	0.557926
     29872.12	0.12881	1622587.0	1439559.0	824453.0	0.119685	0.557372
     29872.64	0.13723	1719357.0	1524962.0	873177.0	0.119981	0.557586
     29873.15	0.12115	1533876.0	1360677.0	778947.0	0.119815	0.557795
     29873.66	0.12998	1624284.0	1441152.0	825319.0	0.119624	0.557428
     29874.18	0.13003	1588825.0	1409530.0	807302.0	0.119738	0.557314
     29874.69	0.12804	1594524.0	1414864.0	810399.0	0.119542	0.557262
     29875.20	0.12068	1526468.0	1354574.0	776086.0	0.119470	0.556979
     29875.72	0.12824	1593717.0	1414274.0	810387.0	0.119453	0.556860
     29876.23	0.12619	1584252.0	1405988.0	805862.0	0.119372	0.556583
     29876.74	0.12429	1570037.0	1393408.0	798341.0	0.119347	0.556972
     29877.26	0.11574	1425562.0	1264886.0	724994.0	0.119584	0.556574
     29877.77	0.12747	1588095.0	1409576.0	807861.0	0.119246	0.556654
     29878.29	0.13292	1676675.0	1488501.0	852998.0	0.119043	0.556768
     29878.80	0.12365	1577510.0	1400331.0	803155.0	0.119139	0.555916
     29879.31	0.12053	1536310.0	1363840.0	782074.0	0.119079	0.556110
     29879.83	0.12310	1580907.0	1402992.0	804933.0	0.119392	0.555603
     29880.34	0.12109	1506266.0	1336922.0	766882.0	0.119264	0.555792
     29880.85	0.11748	1483194.0	1316675.0	755210.0	0.119088	0.555869
     29881.37	0.12251	1532639.0	1360716.0	780595.0	0.118980	0.555710
     29881.88	0.11046	1396024.0	1239466.0	711021.0	0.118948	0.555734
     29882.39	0.12337	1585333.0	1407602.0	807624.0	0.118907	0.555546
     29882.91	0.12740	1617999.0	1436610.0	824483.0	0.118904	0.555285
     29883.42	0.13072	1648513.0	1464100.0	840346.0	0.118633	0.555182
     29883.94	0.12837	1657849.0	1472256.0	845047.0	0.118725	0.555159
     29884.45	0.13545	1745927.0	1550046.0	889543.0	0.119001	0.555332
     29884.96	0.12835	1665345.0	1478943.0	848757.0	0.118705	0.555310
     29885.48	0.12518	1629511.0	1447200.0	830845.0	0.118649	0.554943
     29885.99	0.11702	1478209.0	1312991.0	753999.0	0.118523	0.554672
     29886.50	0.13677	1780581.0	1581346.0	907740.0	0.118663	0.555074
     29887.02	0.12448	1620454.0	1439264.0	826560.0	0.118574	0.554615
     29887.53	0.12071	1533039.0	1361432.0	781938.0	0.118715	0.554517
     29888.05	0.12414	1599960.0	1421080.0	816107.0	0.118561	0.554627
     29888.56	0.12886	1650993.0	1466321.0	842303.0	0.118620	0.554372
     29889.07	0.12553	1613107.0	1432915.0	822819.0	0.118451	0.554730
     29889.59	0.12494	1581655.0	1405482.0	807614.0	0.118091	0.554051
     29890.10	0.12007	1546360.0	1373395.0	789111.0	0.118618	0.554134
     29890.62	0.14003	1782447.0	1583269.0	909775.0	0.118495	0.554050
     29891.13	0.12213	1546470.0	1373885.0	789761.0	0.118332	0.553667
     29891.64	0.13216	1697945.0	1508261.0	867084.0	0.118461	0.553577
     29892.16	0.12677	1638580.0	1455886.0	836707.0	0.118215	0.553896
     29892.67	0.12516	1607513.0	1427933.0	821025.0	0.118460	0.553430
     29893.19	0.14822	1914911.0	1701185.0	977986.0	0.118346	0.553585
     29893.70	0.10784	1373995.0	1220635.0	701960.0	0.118351	0.553250
     29894.21	0.14720	1875497.0	1665999.0	957793.0	0.118449	0.553549
     29894.73	0.10916	1440838.0	1280043.0	736097.0	0.118331	0.553287
     29895.24	0.13148	1683489.0	1495943.0	860175.0	0.118112	0.553376
     29895.76	0.12244	1612833.0	1432864.0	824303.0	0.118317	0.552892
     29896.27	0.12322	1595592.0	1417809.0	815722.0	0.118132	0.552794
     29896.78	0.12982	1650831.0	1466987.0	843890.0	0.118068	0.552944
     29897.30	0.14204	1828655.0	1624932.0	934881.0	0.118115	0.552802
     29897.81	0.10541	1375685.0	1223040.0	703953.0	0.117612	0.552383
     29898.33	0.11602	1489136.0	1323214.0	761596.0	0.118132	0.552403
     29898.84	0.11750	1524918.0	1355180.0	780188.0	0.118006	0.552155
     29899.36	0.11594	1490278.0	1324154.0	762307.0	0.118189	0.552180
     29899.87	0.11820	1488987.0	1323275.0	761563.0	0.117986	0.552492
     29900.38	0.12320	1565782.0	1391411.0	801211.0	0.118067	0.551949
     29900.90	0.11549	1479504.0	1314709.0	756948.0	0.118092	0.552076
     29901.41	0.13880	1780720.0	1583039.0	911578.0	0.117671	0.551925
     29901.93	0.12123	1542356.0	1371009.0	789573.0	0.117764	0.551810
     29902.44	0.083002	1047325.0	930909.0	536114.0	0.117833	0.551815
     29902.96	0.13269	1700783.0	1512007.0	870812.0	0.117651	0.551767
     29903.47	0.10905	1413969.0	1256853.0	724205.0	0.117790	0.551292
     29903.98	0.11815	1496925.0	1330779.0	766494.0	0.117649	0.551693
     29904.50	0.13660	1746650.0	1553204.0	894748.0	0.117380	0.551533
     29905.01	0.13624	1764823.0	1569627.0	904815.0	0.117212	0.550863
     29905.53	0.11369	1437089.0	1277173.0	735991.0	0.117970	0.551186
     29906.04	0.15210	1959726.0	1742537.0	1004067.0	0.117463	0.551283
     29906.56	0.11675	1528702.0	1359417.0	783177.0	0.117363	0.551452
     29907.07	0.11659	1494209.0	1328103.0	765713.0	0.117845	0.550699
     29907.59	0.14152	1819379.0	1618057.0	933055.0	0.117269	0.550517
     29908.10	0.12311	1575129.0	1400644.0	807545.0	0.117405	0.550689
     29908.62	0.13450	1729140.0	1537654.0	886574.0	0.117366	0.550649
     29909.13	0.13916	1805329.0	1605113.0	925975.0	0.117549	0.550102
     29909.64	0.18317	2394785.0	2129944.0	1228388.0	0.117198	0.550393
     29910.16	0.089973	1159619.0	1031157.0	594683.0	0.117410	0.550408
     29910.67	0.10044	1309915.0	1165132.0	672228.0	0.117128	0.549992
     29911.19	0.12681	1654676.0	1471631.0	848963.0	0.117234	0.550111
     29911.70	0.13889	1814737.0	1614263.0	931101.0	0.117062	0.550266
     29912.22	0.13116	1682142.0	1496014.0	863227.0	0.117264	0.549882
     29912.73	0.14488	1889097.0	1680700.0	969790.0	0.116889	0.549886
     29913.25	0.13939	1802740.0	1603572.0	925929.0	0.117074	0.549191
     29913.76	0.13651	1760507.0	1566070.0	903887.0	0.117033	0.549620
     29914.28	0.13206	1724742.0	1533946.0	885872.0	0.117234	0.549026
     29914.79	0.12496	1618128.0	1439380.0	830939.0	0.117057	0.549411
     29915.31	0.12926	1673639.0	1488936.0	859473.0	0.116939	0.549498
     29915.82	0.12290	1595316.0	1419314.0	819682.0	0.116898	0.549012
     29916.34	0.12897	1655729.0	1472857.0	850797.0	0.117037	0.548786
     29916.85	0.13403	1740581.0	1548535.0	894507.0	0.116910	0.548792
     29917.37	0.11865	1507517.0	1341371.0	774901.0	0.116772	0.548712
     29917.88	0.11998	1538762.0	1369261.0	790950.0	0.116707	0.548792
     29918.40	0.12483	1603970.0	1427173.0	824569.0	0.116786	0.548590
     29918.91	0.12491	1605985.0	1429338.0	825630.0	0.116526	0.548820
     29919.43	0.12257	1562357.0	1390438.0	803393.0	0.116577	0.548530
     29919.94	0.12433	1609557.0	1432196.0	827585.0	0.116750	0.548452
     29920.46	0.11965	1539451.0	1369783.0	791751.0	0.116774	0.548161
     29920.97	0.12723	1652284.0	1470900.0	850089.0	0.116284	0.548289
     29921.49	0.12758	1642741.0	1462024.0	845080.0	0.116544	0.548146
     29922.00	0.12227	1570348.0	1397883.0	808001.0	0.116338	0.548151
     29922.52	0.11875	1533701.0	1365213.0	789165.0	0.116373	0.548090
     29923.03	0.11816	1517044.0	1350033.0	780814.0	0.116635	0.547547
     29923.55	0.11135	1434778.0	1276936.0	738656.0	0.116547	0.547386
     29924.06	0.12925	1659741.0	1477240.0	853906.0	0.116486	0.548110
     29924.58	0.11730	1497988.0	1333040.0	770832.0	0.116661	0.547747
     29925.09	0.13337	1727084.0	1537247.0	889151.0	0.116441	0.547481
     29925.61	0.12233	1559851.0	1388513.0	802827.0	0.116357	0.547849
     29926.12	0.12866	1666573.0	1483678.0	858453.0	0.116245	0.547147
     29926.64	0.12225	1583258.0	1409748.0	815659.0	0.116074	0.547170
     29927.15	0.12814	1644669.0	1464246.0	847756.0	0.116199	0.546503
     29927.67	0.13479	1749736.0	1557484.0	901791.0	0.116393	0.546444
     29928.18	0.12381	1601936.0	1426294.0	825693.0	0.116133	0.546612
     29928.70	0.13440	1746751.0	1555058.0	900381.0	0.116245	0.546450
     29929.21	0.11620	1505177.0	1340402.0	776137.0	0.115941	0.546396
     29929.73	0.12604	1604403.0	1428389.0	827085.0	0.116204	0.546395
     29930.24	0.11094	1418885.0	1262997.0	731137.0	0.116384	0.546642
     29930.76	0.12650	1638992.0	1459339.0	845216.0	0.116098	0.546147
     29931.27	0.12813	1676470.0	1493025.0	864674.0	0.115886	0.546207
     29931.79	0.12456	1641535.0	1461804.0	846746.0	0.115960	0.546026
     29932.31	0.12910	1669777.0	1486925.0	861468.0	0.115980	0.545828
     29932.82	0.13488	1745609.0	1554556.0	900494.0	0.115914	0.546002
     29933.34	0.12228	1551449.0	1381427.0	800323.0	0.116072	0.545857
     29933.85	0.13150	1692102.0	1506943.0	873451.0	0.115888	0.545386
     29934.37	0.13257	1680812.0	1496857.0	867262.0	0.115909	0.545782
     29934.88	0.11820	1520073.0	1353574.0	784455.0	0.116010	0.545515
     29935.40	0.13289	1720676.0	1532279.0	888246.0	0.115961	0.545263
     29935.91	0.12854	1637651.0	1459015.0	845882.0	0.115501	0.545137
     29936.43	0.12968	1660261.0	1479019.0	857539.0	0.115596	0.545068
     29936.94	0.11556	1493883.0	1330636.0	771269.0	0.115722	0.545375
     29937.46	0.13442	1717948.0	1530106.0	887162.0	0.115794	0.545065
     29937.98	0.12852	1675402.0	1492334.0	865600.0	0.115712	0.544674
     29938.49	0.12800	1653390.0	1473028.0	853922.0	0.115508	0.545236
     29939.01	0.11242	1485673.0	1323628.0	767715.0	0.115491	0.544713
     29939.52	0.12125	1575013.0	1402996.0	813953.0	0.115654	0.544463
     29940.04	0.13082	1718549.0	1531287.0	888532.0	0.115372	0.544293
     29940.55	0.10888	1413553.0	1259164.0	730865.0	0.115658	0.543975
     29941.07	0.12565	1623908.0	1446695.0	839826.0	0.115554	0.543842
     29941.59	0.11449	1487413.0	1324859.0	768951.0	0.115732	0.544034
     29942.10	0.11558	1470378.0	1310023.0	760261.0	0.115475	0.544138
     29942.62	0.11983	1571814.0	1400472.0	812975.0	0.115421	0.543864
     29943.13	0.11631	1509918.0	1345017.0	780953.0	0.115649	0.543647
     29943.65	0.11498	1484511.0	1323163.0	768115.0	0.115060	0.543841
     29944.16	0.10135	1323546.0	1179203.0	684980.0	0.115476	0.543204
     29944.68	0.12743	1635760.0	1457512.0	846485.0	0.115377	0.543394
     29945.20	0.12653	1661092.0	1480109.0	859628.0	0.115359	0.543371
     29945.71	0.11237	1492946.0	1330489.0	772595.0	0.115205	0.543547
     29946.23	0.13482	1751933.0	1561593.0	907178.0	0.115013	0.543123
     29946.74	0.12293	1602222.0	1427842.0	829459.0	0.115227	0.543146
     29947.26	0.12197	1568201.0	1397504.0	811999.0	0.115241	0.542944
     29947.78	0.13753	1769558.0	1577206.0	916501.0	0.115075	0.542847
     29948.29	0.13570	1734630.0	1546251.0	898513.0	0.114961	0.542847
     29948.81	0.12607	1620688.0	1444503.0	839363.0	0.115085	0.542877
     29949.32	0.12878	1650593.0	1471207.0	855321.0	0.115051	0.542362
     29949.84	0.12738	1636807.0	1458908.0	848246.0	0.115059	0.542273
     29950.36	0.14302	1833594.0	1634558.0	950337.0	0.114906	0.542311
     29950.87	0.12564	1637511.0	1459656.0	848839.0	0.114977	0.542087
     29951.39	0.12767	1652225.0	1472548.0	855949.0	0.115129	0.542539
     29951.90	0.12268	1581351.0	1409588.0	819925.0	0.114982	0.541840
     29952.42	0.12990	1670646.0	1489332.0	866054.0	0.114883	0.542136
     29952.94	0.13624	1737704.0	1549429.0	901372.0	0.114678	0.541724
     29953.45	0.13928	1803755.0	1608319.0	936036.0	0.114681	0.541291
     29953.97	0.13128	1695663.0	1511760.0	879653.0	0.114799	0.541502
     29954.48	0.13252	1701927.0	1517277.0	883025.0	0.114844	0.541319
     29955.00	0.13734	1774696.0	1582198.0	920819.0	0.114814	0.541307
     29955.52	0.12523	1578766.0	1407350.0	818843.0	0.114935	0.541571
     29956.03	0.13300	1718121.0	1532130.0	891551.0	0.114572	0.541452
     29956.55	0.12778	1651813.0	1473091.0	858014.0	0.114511	0.540498
     29957.07	0.12682	1618688.0	1443476.0	840598.0	0.114562	0.540696
     29957.58	0.12532	1611905.0	1437790.0	837020.0	0.114309	0.541015
     29958.10	0.12635	1613610.0	1438677.0	838234.0	0.114750	0.540182
     29958.61	0.12808	1653677.0	1474652.0	858583.0	0.114579	0.540894
     29959.13	0.12589	1614899.0	1440136.0	838824.0	0.114535	0.540492
     29959.65	0.12140	1550445.0	1382625.0	805347.0	0.114558	0.540466
     29960.16	0.12642	1644185.0	1466454.0	853899.0	0.114398	0.540790
     29960.68	0.13468	1702474.0	1517916.0	884435.0	0.114744	0.540145
     29961.20	0.11490	1490417.0	1329534.0	774512.0	0.114227	0.540351
     29961.71	0.13063	1697924.0	1514428.0	882478.0	0.114369	0.540059
     29962.23	0.12249	1569397.0	1399849.0	815698.0	0.114327	0.540075
     29962.75	0.12976	1666456.0	1486394.0	865988.0	0.114346	0.540237
     29963.26	0.11395	1454235.0	1297177.0	756261.0	0.114290	0.539559
     29963.78	0.11992	1525869.0	1361346.0	793947.0	0.114090	0.539212
     29964.30	0.12906	1671468.0	1490853.0	869190.0	0.114354	0.539542
     29964.81	0.11205	1446080.0	1290484.0	752501.0	0.113839	0.539370
     29965.33	0.12158	1521089.0	1356702.0	791270.0	0.114370	0.539173
     29965.84	0.12726	1647385.0	1469804.0	857231.0	0.114060	0.539177
     29966.36	0.11420	1438308.0	1283243.0	748387.0	0.114077	0.539226
     29966.88	0.13209	1680689.0	1499092.0	874344.0	0.114344	0.539141
     29967.39	0.12676	1595448.0	1423217.0	830497.0	0.114235	0.538651
     29967.91	0.12917	1652558.0	1474939.0	860444.0	0.113708	0.538923
     29968.43	0.13084	1651389.0	1473222.0	859684.0	0.114165	0.538642
     29968.94	0.12394	1587311.0	1416208.0	826346.0	0.114059	0.538725
     29969.46	0.13325	1700751.0	1517619.0	885622.0	0.113927	0.538608
     29969.98	0.12317	1540249.0	1374160.0	802131.0	0.114101	0.538326
     29970.49	0.12022	1514056.0	1351187.0	788555.0	0.113809	0.538537
     29971.01	0.13650	1736650.0	1550140.0	904790.0	0.113613	0.538398
     29971.53	0.13654	1750842.0	1562391.0	911972.0	0.113879	0.538363
     29972.04	0.14055	1796516.0	1604000.0	936326.0	0.113349	0.538292
     29972.56	0.083037	1071918.0	956405.0	558540.0	0.114023	0.537855
     29973.08	0.12759	1609875.0	1436869.0	839063.0	0.113690	0.537936
     29973.60	0.11919	1492582.0	1332270.0	778040.0	0.113623	0.537862
     29974.11	0.14480	1875999.0	1674774.0	978450.0	0.113463	0.537464
     29974.63	0.11035	1404053.0	1252883.0	732049.0	0.113916	0.537355
     29975.15	0.14591	1844859.0	1646687.0	962332.0	0.113637	0.537161
     29975.66	0.12409	1586665.0	1415959.0	827407.0	0.113827	0.537266
     29976.18	0.17464	2223081.0	1984306.0	1159719.0	0.113625	0.537091
     29976.70	0.090271	1150848.0	1027376.0	600423.0	0.113491	0.537129
     29977.21	0.12521	1624951.0	1451130.0	847843.0	0.113135	0.537402
     29977.73	0.12335	1562684.0	1395288.0	815448.0	0.113304	0.537118
     29978.25	0.12935	1644787.0	1468683.0	858673.0	0.113245	0.536733
     29978.76	0.12335	1543970.0	1378562.0	805927.0	0.113316	0.536803
     29979.28	0.13290	1694790.0	1513336.0	884857.0	0.113242	0.536646
     29979.80	0.12299	1581804.0	1412129.0	825932.0	0.113467	0.536341
     29980.32	0.18153	2296793.0	2050967.0	1199692.0	0.113202	0.536247
     29980.83	0.095546	1204230.0	1075511.0	628939.0	0.113044	0.536517
     29981.35	0.11343	1393630.0	1244463.0	728013.0	0.113208	0.536140
     29981.87	0.10170	1247486.0	1113725.0	651814.0	0.113420	0.535706
     29982.38	0.11619	1469899.0	1312963.0	768033.0	0.112907	0.536209
     29982.90	0.12056	1484140.0	1325250.0	775175.0	0.113234	0.536268
     29983.42	0.13651	1711031.0	1527869.0	894133.0	0.113222	0.535775
     29983.94	0.11343	1429097.0	1276190.0	747180.0	0.113164	0.535328
     29984.45	0.14711	1873087.0	1672548.0	978871.0	0.113240	0.535704
     29984.97	0.095192	1197194.0	1069203.0	625769.0	0.113067	0.535687
     29985.49	0.094771	1220045.0	1089800.0	637805.0	0.112894	0.535717
     29986.00	0.10790	1391400.0	1242690.0	727662.0	0.113032	0.535197
     29986.52	0.11621	1470879.0	1313569.0	769173.0	0.113112	0.535187
     29987.04	0.12553	1613425.0	1440953.0	843392.0	0.113055	0.535628
     29987.56	0.12258	1542766.0	1377771.0	807029.0	0.113110	0.534863
     29988.07	0.13587	1712925.0	1529965.0	895950.0	0.112958	0.535116
     29988.59	0.19014	2413931.0	2156398.0	1262803.0	0.112817	0.535105
     29989.11	0.093498	1203943.0	1075520.0	630199.0	0.112798	0.534524
     29989.63	0.097495	1225453.0	1094870.0	641558.0	0.112675	0.534491
     29990.14	0.12612	1594132.0	1424167.0	834474.0	0.112742	0.534541
     29990.66	0.13405	1682705.0	1503186.0	880844.0	0.112816	0.534462
     29991.18	0.12910	1634818.0	1460359.0	855930.0	0.112849	0.534249
     29991.70	0.13963	1743462.0	1557376.0	912693.0	0.112870	0.534358
     29992.21	0.11767	1466700.0	1310430.0	768446.0	0.112660	0.533740
     29992.73	0.20887	2643570.0	2362331.0	1384270.0	0.112481	0.534476
     29993.25	0.10092	1292908.0	1155104.0	677092.0	0.112704	0.534139
     29993.77	0.088214	1111857.0	993223.0	582419.0	0.112832	0.533765
     29994.28	0.12273	1542937.0	1378568.0	808597.0	0.112642	0.533500
     29994.80	0.12297	1564105.0	1397430.0	819724.0	0.112679	0.533422
     29995.32	0.14509	1829441.0	1634920.0	958718.0	0.112417	0.533752
     29995.84	0.12839	1634356.0	1460681.0	856803.0	0.112346	0.533450
     29996.35	0.16660	2139338.0	1911800.0	1121394.0	0.112451	0.533473
     29996.87	0.17529	2213647.0	1978395.0	1160866.0	0.112355	0.533120
     29997.39	0.078126	980441.0	876349.0	513859.0	0.112238	0.533816
     29997.91	0.10859	1380682.0	1234117.0	723836.0	0.112222	0.533546
     29998.42	0.13261	1679812.0	1501628.0	881000.0	0.112132	0.533248
     29998.94	0.12913	1633338.0	1459659.0	856566.0	0.112423	0.533027
     29999.46	0.12464	1571618.0	1404921.0	824443.0	0.112125	0.533028
     29999.98	0.12772	1628977.0	1456167.0	854578.0	0.112145	0.532955
     30000.50	0.13422	1709387.0	1527651.0	896972.0	0.112404	0.532462
     30001.01	0.12151	1517898.0	1356851.0	796618.0	0.112160	0.532547
     30001.53	0.12251	1546956.0	1382626.0	812040.0	0.112305	0.532190
     30002.05	0.12159	1558813.0	1393481.0	818309.0	0.112120	0.532320
     30002.57	0.13343	1682316.0	1503776.0	883060.0	0.112192	0.532341
     30003.08	0.11336	1425094.0	1273803.0	747992.0	0.112231	0.532370
     30003.60	0.13720	1744838.0	1559361.0	915762.0	0.112386	0.532275
     30004.12	0.11744	1482474.0	1325717.0	778592.0	0.111759	0.532222
     30004.64	0.12549	1620751.0	1449450.0	851212.0	0.111705	0.532278
     30005.16	0.11745	1493539.0	1335226.0	784500.0	0.112048	0.531809
     30005.67	0.12497	1592770.0	1423932.0	836436.0	0.112053	0.532027
     30006.19	0.11725	1481869.0	1324921.0	778067.0	0.111951	0.532295
     30006.71	0.11565	1482423.0	1325827.0	779113.0	0.111641	0.531636
     30007.23	0.13119	1668227.0	1491920.0	876905.0	0.111698	0.531420
     30007.75	0.10684	1376327.0	1231018.0	723307.0	0.111577	0.531763
     30008.26	0.13299	1688041.0	1509242.0	886788.0	0.111961	0.531757
     30008.78	0.12991	1638838.0	1465603.0	861625.0	0.111721	0.531202
     30009.30	0.13228	1642458.0	1468860.0	863626.0	0.111707	0.531102
     30009.82	0.12199	1508002.0	1348448.0	792870.0	0.111831	0.531050
     30010.34	0.13919	1759790.0	1573849.0	925508.0	0.111670	0.530937
     30010.86	0.12684	1595107.0	1426575.0	838728.0	0.111664	0.531145
     30011.37	0.12430	1569903.0	1404183.0	825675.0	0.111558	0.531010
     30011.89	0.12322	1549897.0	1386262.0	815145.0	0.111578	0.531000
     30012.41	0.12677	1597579.0	1429069.0	840293.0	0.111466	0.531028
     30012.93	0.12005	1520067.0	1359933.0	799894.0	0.111319	0.530711
     30013.45	0.11848	1479786.0	1323645.0	778542.0	0.111508	0.530722
     30013.96	0.12395	1575118.0	1409516.0	829261.0	0.111084	0.530467
     30014.48	0.12725	1577963.0	1411451.0	830576.0	0.111517	0.530254
     30015.00	0.12706	1588606.0	1420901.0	836083.0	0.111566	0.530319
     30015.52	0.14124	1784733.0	1596518.0	939552.0	0.111444	0.530177
     30016.04	0.11838	1489085.0	1331874.0	783817.0	0.111575	0.530167
     30016.56	0.13582	1743902.0	1560359.0	918872.0	0.111209	0.529524
     30017.07	0.13085	1644472.0	1471480.0	866420.0	0.111151	0.529654
     30017.59	0.12235	1533601.0	1372082.0	807993.0	0.111289	0.529531
     30018.11	0.12813	1620481.0	1449739.0	853317.0	0.111339	0.530008
     30018.63	0.12836	1660502.0	1485940.0	875131.0	0.111072	0.529429
     30019.15	0.13231	1622034.0	1451363.0	855146.0	0.111178	0.528986
     30019.67	0.12053	1543102.0	1380990.0	813459.0	0.110994	0.529260
     30020.18	0.12353	1560672.0	1396181.0	822583.0	0.111376	0.529047
     30020.70	0.12601	1585954.0	1418883.0	836134.0	0.111316	0.528836
     30021.22	0.13665	1708177.0	1528765.0	900922.0	0.110967	0.528797
     30021.74	0.11130	1399619.0	1252767.0	738224.0	0.110845	0.528863
     30022.26	0.12176	1551617.0	1388626.0	818487.0	0.110983	0.528613
     30022.78	0.12767	1602741.0	1434477.0	845233.0	0.110915	0.528943
     30023.30	0.11978	1533649.0	1372704.0	808993.0	0.110867	0.528748
     30023.81	0.11116	1372632.0	1228728.0	724400.0	0.110751	0.528391
     30024.33	0.12061	1550706.0	1388375.0	818701.0	0.110576	0.528170
     30024.85	0.15005	1909752.0	1709845.0	1008021.0	0.110571	0.528414
     30025.37	0.10792	1378162.0	1233824.0	727679.0	0.110632	0.528014
     30025.89	0.098061	1247707.0	1117005.0	658798.0	0.110656	0.527989
     30026.41	0.10534	1342242.0	1201268.0	708697.0	0.110964	0.527705
     30026.93	0.10915	1394417.0	1248641.0	735973.0	0.110421	0.528618
     30027.44	0.13570	1718108.0	1538035.0	907264.0	0.110718	0.527827
     30027.96	0.11660	1490732.0	1334180.0	786996.0	0.110950	0.527849
     30028.48	0.13548	1718792.0	1538910.0	908249.0	0.110547	0.527311
     30029.00	0.13186	1642047.0	1470307.0	867384.0	0.110472	0.527745
     30029.52	0.13548	1685925.0	1509501.0	890920.0	0.110535	0.527280
     30030.04	0.12080	1506738.0	1349008.0	796134.0	0.110578	0.527357
     30030.56	0.12536	1548225.0	1386460.0	818203.0	0.110355	0.527399
     30031.08	0.12975	1616357.0	1447496.0	854474.0	0.110340	0.527104
     30031.60	0.12774	1617054.0	1448330.0	854996.0	0.110195	0.527070
     30032.11	0.13860	1747148.0	1564964.0	924133.0	0.110122	0.526762
     30032.63	0.14106	1758539.0	1574663.0	929765.0	0.110442	0.526865
     30033.15	0.15245	1890138.0	1692469.0	999430.0	0.110461	0.526759
     30033.67	0.095386	1185874.0	1061695.0	626666.0	0.110613	0.527208
     30034.19	0.11276	1433402.0	1283780.0	758195.0	0.110242	0.526624
     30034.71	0.14097	1785023.0	1598868.0	944541.0	0.110135	0.526352
     30035.23	0.12016	1517815.0	1359235.0	802877.0	0.110350	0.526476
     30035.75	0.13185	1643880.0	1472090.0	869821.0	0.110376	0.526151
     30036.27	0.14732	1845309.0	1652784.0	976251.0	0.110186	0.526497
     30036.78	0.14014	1725278.0	1545437.0	913160.0	0.110081	0.526151
     30037.30	0.13202	1643208.0	1472703.0	870234.0	0.109551	0.526093
     30037.82	0.11335	1398525.0	1252455.0	740512.0	0.110312	0.525519
     30038.34	0.13683	1684294.0	1508785.0	891605.0	0.110042	0.526037
     30038.86	0.13347	1662436.0	1489189.0	880595.0	0.110052	0.525389
     30039.38	0.12318	1541535.0	1381192.0	816229.0	0.109832	0.526007
     30039.90	0.12331	1544804.0	1384047.0	818203.0	0.109885	0.525657
     30040.42	0.13089	1630105.0	1460479.0	863540.0	0.109880	0.525480
     30040.94	0.12072	1479744.0	1326138.0	783664.0	0.109598	0.526046
     30041.46	0.12586	1570260.0	1407201.0	832526.0	0.109639	0.524893
     30041.98	0.12930	1624537.0	1455389.0	860838.0	0.109950	0.525122
     30042.50	0.12568	1622498.0	1453769.0	859626.0	0.109807	0.525417
     30043.01	0.12739	1567517.0	1404451.0	830646.0	0.109846	0.525198
     30043.53	0.12387	1532500.0	1373421.0	812428.0	0.109596	0.525033
     30044.05	0.12753	1571613.0	1408216.0	833149.0	0.109779	0.524866
     30044.57	0.11130	1401285.0	1255824.0	743169.0	0.109598	0.524624
     30045.09	0.13049	1602072.0	1435952.0	849577.0	0.109470	0.524845
     30045.61	0.11527	1421851.0	1274465.0	754184.0	0.109433	0.524645
     30046.13	0.12593	1556199.0	1394427.0	825617.0	0.109763	0.524108
     30046.65	0.12907	1608087.0	1441227.0	853299.0	0.109550	0.524140
     30047.17	0.11544	1448378.0	1298345.0	768603.0	0.109354	0.524271
     30047.69	0.12012	1483623.0	1329759.0	787376.0	0.109489	0.524047
     30048.21	0.13182	1603154.0	1436946.0	850868.0	0.109453	0.524018
     30048.73	0.12721	1566413.0	1403691.0	831229.0	0.109683	0.523955
     30049.25	0.11580	1431155.0	1282707.0	759742.0	0.109509	0.523749
