# Diamond Light Source
# Instrument: B18-CORE XAS Date: Wed, 27 Jul 2016 22:00:52 BST
# Ring energy:   3.0
# Ring current - start: 301.3
# Primary slits:  vertical gap=  2.4; horizontal gap= 52.0; vertical offset=  0.4; horizontal offset= -1.0
# Secondary slits:  vertical gap=  3.5; horizontal gap= 23.0; vertical offset=  5.3; horizontal offset= -14.5
# OH Mirror Coating: Pt
# White beam filter: 140um PyC
# Crystal cut: Si(311)
# PostDCM slits:  vertical gap= 18.0; horizontal gap= 28.0; vertical offset= -9.1; horizontal offset= -16.5
# Experimental slits:  vertical gap= 28.6; horizontal gap= 45.0; vertical offset=  5.7; horizontal offset= -17.5
# HR Mirror : out; Y: 37.8; Pitch:  0.3; Coating: Pt
# Mirror 2: Pitch:  2.3; Height: -6.4; Yaw: -1.6; Bend:  0.8;
# I0 Stanford sensitivity: 20 nA/V Offsets: 20 pA
# It Stanford sensitivity: 100 nA/V Offsets: 1 pA
# Iref Stanford sensitivity: 20 nA/V Offsets: 1 pA
#
# Ascii output file name: 'Andrea_Sn//ascii/262875_PtSn_OCO_Abu_1.dat'
# Nexus output file: '/dls/b18/data/2016/sp10306-9/Andrea_Sn//nexus/262875_PtSn_OCO_Abu_1.nxs'
# XML folder and files:
# /dls/b18/data/2016/sp10306-9/xml/Andrea_Sn/
# QEXAFS_Parameters
# Sample_Parameters
# Detector_Parameters
# Output_Parameters
# The contents of these files are also stored in the nexus file.
#
# Sample name: PtSn_OCO_Abu
# Sample description: default sample description
# Additional comments: default additional comments
# command: qexafs_energy 29000.0 30050.0 2094 263.53 qexafs_counterTimer01
#
#
# qexafs_energy	   time	       I0	       It	     Iref	  lnI0It	 lnItIref
     29000.24	0.14181	2046384.0	1629297.0	3389884.0	0.227926	-0.732647
     29000.73	0.14842	2148612.0	1710406.0	3559261.0	0.228091	-0.732822
     29001.21	0.16900	2433467.0	1937677.0	4031497.0	0.227827	-0.732648
     29001.69	0.081048	1195160.0	951541.0	1979436.0	0.227953	-0.732484
     29002.18	0.11826	1702114.0	1355170.0	2820262.0	0.227944	-0.732903
     29002.66	0.13235	1899954.0	1512902.0	3148594.0	0.227800	-0.732926
     29003.14	0.12844	1852215.0	1475276.0	3069047.0	0.227537	-0.732522
     29003.63	0.12347	1795845.0	1429492.0	2974092.0	0.228157	-0.732620
     29004.11	0.12932	1905795.0	1517631.0	3158151.0	0.227749	-0.732836
     29004.59	0.11306	1696316.0	1350679.0	2809825.0	0.227851	-0.732515
     29005.08	0.13660	1995828.0	1588894.0	3306962.0	0.228021	-0.732992
     29005.56	0.12374	1794072.0	1428372.0	2971726.0	0.227953	-0.732608
     29006.05	0.12105	1760176.0	1401506.0	2916207.0	0.227866	-0.732736
     29006.53	0.12926	1874062.0	1492536.0	3105658.0	0.227632	-0.732749
     29007.01	0.12716	1840538.0	1465817.0	3049690.0	0.227645	-0.732627
     29007.50	0.12610	1837283.0	1463283.0	3044896.0	0.227605	-0.732784
     29007.98	0.12585	1829775.0	1457653.0	3032793.0	0.227365	-0.732656
     29008.46	0.13153	1924826.0	1532793.0	3189490.0	0.227744	-0.732769
     29008.95	0.10572	1547668.0	1233044.0	2564908.0	0.227263	-0.732437
     29009.43	0.11288	1649603.0	1313764.0	2734284.0	0.227638	-0.732973
     29009.92	0.12253	1813550.0	1444772.0	3006242.0	0.227335	-0.732739
     29010.40	0.11649	1715155.0	1366440.0	2842882.0	0.227295	-0.732610
     29010.88	0.13100	1906239.0	1518809.0	3159501.0	0.227206	-0.732488
     29011.37	0.11983	1765309.0	1405929.0	2924857.0	0.227627	-0.732547
     29011.85	0.13737	2013787.0	1604101.0	3337623.0	0.227454	-0.732695
     29012.34	0.13164	1936947.0	1543411.0	3210481.0	0.227118	-0.732426
     29012.82	0.11623	1670268.0	1330535.0	2768745.0	0.227403	-0.732813
     29013.30	0.12820	1895632.0	1509962.0	3141360.0	0.227468	-0.732571
     29013.79	0.12881	1892235.0	1507564.0	3137527.0	0.227264	-0.732940
     29014.27	0.13147	1905849.0	1518392.0	3159958.0	0.227276	-0.732907
     29014.76	0.12251	1813501.0	1444829.0	3006791.0	0.227268	-0.732882
     29015.24	0.14355	2123645.0	1691954.0	3520815.0	0.227250	-0.732808
     29015.72	0.099251	1462345.0	1165453.0	2424799.0	0.226931	-0.732639
     29016.21	0.13987	2047654.0	1631630.0	3395154.0	0.227115	-0.732770
     29016.69	0.10796	1619615.0	1290669.0	2685734.0	0.227028	-0.732793
     29017.18	0.13236	1959399.0	1561371.0	3249426.0	0.227074	-0.732914
     29017.66	0.12546	1842110.0	1467964.0	3054805.0	0.227035	-0.732839
     29018.14	0.13524	1970601.0	1570403.0	3267790.0	0.227006	-0.732782
     29018.63	0.12305	1800936.0	1435147.0	2986501.0	0.227039	-0.732835
     29019.11	0.14026	2046838.0	1631473.0	3394286.0	0.226813	-0.732610
     29019.60	0.13050	1904084.0	1517598.0	3157296.0	0.226872	-0.732587
     29020.08	0.12487	1840277.0	1466256.0	3050169.0	0.227204	-0.732485
     29020.57	0.11940	1770892.0	1411497.0	2937426.0	0.226833	-0.732883
     29021.05	0.13210	1977753.0	1576186.0	3279011.0	0.226953	-0.732534
     29021.53	0.12501	1865200.0	1486862.0	3093992.0	0.226700	-0.732794
     29022.02	0.12630	1834458.0	1462285.0	3042705.0	0.226749	-0.732747
     29022.50	0.13637	1982557.0	1580385.0	3288389.0	0.226719	-0.732729
     29022.99	0.13619	2012141.0	1603978.0	3336714.0	0.226713	-0.732500
     29023.47	0.12685	1894252.0	1510002.0	3141963.0	0.226713	-0.732737
     29023.96	0.11697	1721689.0	1372323.0	2855549.0	0.226801	-0.732759
     29024.44	0.11564	1695636.0	1351925.0	2813257.0	0.226528	-0.732813
     29024.92	0.11975	1741165.0	1388223.0	2887584.0	0.226530	-0.732396
     29025.41	0.11779	1733275.0	1381780.0	2875859.0	0.226640	-0.732979
     29025.89	0.12900	1918731.0	1529768.0	3182240.0	0.226548	-0.732469
     29026.38	0.11823	1741874.0	1388772.0	2889927.0	0.226542	-0.732811
     29026.86	0.12196	1784479.0	1422856.0	2960489.0	0.226460	-0.732688
     29027.35	0.12885	1929254.0	1537858.0	3200491.0	0.226743	-0.732914
     29027.83	0.10809	1619230.0	1291237.0	2685917.0	0.226350	-0.732422
     29028.32	0.097754	1431605.0	1141242.0	2374670.0	0.226679	-0.732741
     29028.80	0.11856	1751803.0	1397069.0	2906914.0	0.226269	-0.732716
     29029.28	0.12061	1780964.0	1420399.0	2955232.0	0.226217	-0.732639
     29029.77	0.12505	1826376.0	1456283.0	3030114.0	0.226446	-0.732713
     29030.25	0.14754	2156490.0	1720265.0	3579528.0	0.226004	-0.732753
     29030.74	0.12618	1874833.0	1494905.0	3110776.0	0.226457	-0.732810
     29031.22	0.13267	1945132.0	1551414.0	3228110.0	0.226163	-0.732730
     29031.71	0.11781	1736292.0	1384996.0	2881563.0	0.226055	-0.732636
     29032.19	0.10831	1563826.0	1247748.0	2595715.0	0.225795	-0.732522
     29032.68	0.13903	2037790.0	1625357.0	3382277.0	0.226138	-0.732822
     29033.16	0.12571	1854798.0	1479559.0	3078825.0	0.226032	-0.732804
     29033.65	0.14929	2185653.0	1743193.0	3627507.0	0.226196	-0.732827
     29034.13	0.12988	1889531.0	1507653.0	3137018.0	0.225775	-0.732719
     29034.62	0.15314	2238737.0	1785852.0	3716364.0	0.226016	-0.732850
     29035.10	0.10454	1520504.0	1212894.0	2523725.0	0.226033	-0.732727
     29035.58	0.10515	1527862.0	1219063.0	2536555.0	0.225787	-0.732724
     29036.07	0.13480	1996050.0	1592443.0	3313061.0	0.225901	-0.732603
     29036.55	0.13167	1929882.0	1539875.0	3203624.0	0.225758	-0.732581
     29037.04	0.13572	1992991.0	1590288.0	3309423.0	0.225721	-0.732859
     29037.52	0.12725	1870303.0	1492510.0	3104979.0	0.225641	-0.732548
     29038.01	0.13993	2084192.0	1663026.0	3460469.0	0.225742	-0.732765
     29038.49	0.14124	2065864.0	1648623.0	3430376.0	0.225608	-0.732729
     29038.98	0.11689	1687528.0	1346877.0	2802344.0	0.225476	-0.732668
     29039.46	0.14092	2037344.0	1625727.0	3382985.0	0.225692	-0.732803
     29039.95	0.12713	1863602.0	1487437.0	3094340.0	0.225457	-0.732520
     29040.43	0.12497	1828695.0	1459231.0	3036475.0	0.225693	-0.732788
     29040.92	0.12291	1785937.0	1425215.0	2964852.0	0.225621	-0.732504
     29041.40	0.12701	1862973.0	1486551.0	3093267.0	0.225715	-0.732769
     29041.89	0.13181	1903241.0	1519210.0	3159670.0	0.225368	-0.732277
     29042.37	0.11721	1721501.0	1374305.0	2858946.0	0.225248	-0.732505
     29042.86	0.12727	1871545.0	1493939.0	3107940.0	0.225348	-0.732544
     29043.34	0.12361	1807607.0	1443203.0	3002589.0	0.225139	-0.732610
     29043.83	0.13089	1911692.0	1526039.0	3175049.0	0.225313	-0.732648
     29044.31	0.12251	1809324.0	1444072.0	3004205.0	0.225486	-0.732546
     29044.80	0.12181	1772712.0	1414847.0	2943804.0	0.225489	-0.732681
     29045.28	0.13350	1965708.0	1568850.0	3263093.0	0.225510	-0.732333
     29045.77	0.11039	1600710.0	1278076.0	2658361.0	0.225091	-0.732354
     29046.25	0.12624	1856099.0	1481775.0	3082930.0	0.225236	-0.732640
     29046.74	0.11029	1655150.0	1320912.0	2747457.0	0.225569	-0.732353
     29047.22	0.11515	1725732.0	1377271.0	2864638.0	0.225547	-0.732338
     29047.71	0.12938	1913746.0	1528192.0	3179015.0	0.224977	-0.732486
     29048.19	0.12605	1885900.0	1505787.0	3131647.0	0.225089	-0.732243
     29048.68	0.11186	1674897.0	1337127.0	2782314.0	0.225228	-0.732760
     29049.16	0.12332	1846201.0	1473527.0	3064061.0	0.225471	-0.732082
     29049.65	0.12770	1882265.0	1503182.0	3125734.0	0.224892	-0.732085
     29050.13	0.12803	1913997.0	1528502.0	3177981.0	0.224906	-0.731958
     29050.62	0.13495	1996129.0	1594033.0	3315758.0	0.224943	-0.732419
     29051.10	0.13227	1985999.0	1586027.0	3298876.0	0.224890	-0.732350
     29051.59	0.12616	1881929.0	1502992.0	3125503.0	0.224840	-0.732137
     29052.08	0.13285	1998486.0	1595781.0	3318138.0	0.225027	-0.732041
     29052.56	0.12141	1825505.0	1458090.0	3031083.0	0.224729	-0.731793
     29053.05	0.13186	1992983.0	1591230.0	3308554.0	0.225125	-0.732004
     29053.53	0.11215	1682571.0	1343971.0	2793798.0	0.224694	-0.731773
     29054.02	0.12842	1950444.0	1557802.0	3238996.0	0.224781	-0.731988
     29054.50	0.12772	1928835.0	1540637.0	3203454.0	0.224720	-0.732034
     29054.99	0.11913	1786688.0	1426917.0	2966563.0	0.224847	-0.731888
     29055.47	0.13289	2029301.0	1620516.0	3369426.0	0.224947	-0.731998
     29055.96	0.12788	1927258.0	1539280.0	3200766.0	0.224783	-0.732075
     29056.44	0.12701	1934317.0	1545246.0	3212451.0	0.224571	-0.731851
     29056.93	0.13928	2139904.0	1709503.0	3553241.0	0.224558	-0.731657
     29057.41	0.12391	1850148.0	1477578.0	3072269.0	0.224861	-0.732012
     29057.90	0.12702	1889978.0	1509336.0	3137871.0	0.224895	-0.731875
     29058.39	0.12725	1896669.0	1515305.0	3150279.0	0.224482	-0.731874
     29058.87	0.13746	2110072.0	1685574.0	3504308.0	0.224616	-0.731887
     29059.36	0.12377	1854640.0	1481942.0	3081110.0	0.224337	-0.731937
     29059.84	0.13674	2050864.0	1638421.0	3405750.0	0.224528	-0.731732
     29060.33	0.12319	1871919.0	1495811.0	3109176.0	0.224296	-0.731689
     29060.81	0.12108	1843428.0	1473178.0	3062690.0	0.224205	-0.731872
     29061.30	0.11782	1798679.0	1436842.0	2986450.0	0.224605	-0.731638
     29061.78	0.12790	1977399.0	1579833.0	3283874.0	0.224463	-0.731705
     29062.27	0.12472	1903921.0	1521040.0	3162200.0	0.224521	-0.731874
     29062.76	0.12927	1969066.0	1572957.0	3268976.0	0.224602	-0.731519
     29063.24	0.12411	1886547.0	1507595.0	3133968.0	0.224233	-0.731784
     29063.73	0.12412	1880989.0	1503004.0	3124074.0	0.224332	-0.731672
     29064.21	0.15271	2293227.0	1832684.0	3809538.0	0.224178	-0.731726
     29064.70	0.10323	1532860.0	1224839.0	2545467.0	0.224326	-0.731505
     29065.18	0.090082	1368984.0	1093581.0	2273090.0	0.224611	-0.731683
     29065.67	0.11506	1768903.0	1413545.0	2937229.0	0.224259	-0.731366
     29066.16	0.10637	1592124.0	1272508.0	2644309.0	0.224079	-0.731420
     29066.64	0.11298	1680534.0	1342972.0	2791247.0	0.224227	-0.731603
     29067.13	0.11381	1720820.0	1375108.0	2857452.0	0.224269	-0.731398
     29067.61	0.14122	2093668.0	1673805.0	3477694.0	0.223818	-0.731270
     29068.10	0.16695	2511252.0	2007148.0	4169567.0	0.224067	-0.731097
     29068.59	0.10473	1557249.0	1244558.0	2586434.0	0.224140	-0.731500
     29069.07	0.11320	1682253.0	1344655.0	2794271.0	0.223996	-0.731434
     29069.56	0.10987	1643361.0	1313454.0	2728801.0	0.224083	-0.731202
     29070.04	0.13051	1915409.0	1531400.0	3181428.0	0.223749	-0.731148
     29070.53	0.14021	2085385.0	1667427.0	3464049.0	0.223672	-0.731156
     29071.01	0.12754	1892983.0	1513537.0	3144445.0	0.223705	-0.731188
     29071.50	0.13556	2046457.0	1635519.0	3397707.0	0.224150	-0.731141
     29071.99	0.19371	2866269.0	2291040.0	4759562.0	0.224005	-0.731150
     29072.47	0.082274	1214915.0	971730.0	2018187.0	0.223351	-0.730877
     29072.96	0.10815	1616277.0	1292140.0	2683446.0	0.223826	-0.730802
     29073.44	0.12295	1840397.0	1471089.0	3054872.0	0.223978	-0.730735
     29073.93	0.13634	2036173.0	1628119.0	3381576.0	0.223647	-0.730917
     29074.42	0.12757	1902365.0	1521118.0	3158606.0	0.223652	-0.730685
     29074.90	0.13523	2018534.0	1614292.0	3352064.0	0.223475	-0.730680
     29075.39	0.13187	1960101.0	1567158.0	3254212.0	0.223732	-0.730686
     29075.87	0.16244	2439140.0	1950392.0	4049368.0	0.223615	-0.730530
     29076.36	0.12340	1808888.0	1446105.0	3002805.0	0.223839	-0.730673
     29076.85	0.11019	1613326.0	1290491.0	2679322.0	0.223275	-0.730541
     29077.33	0.12655	1876723.0	1501263.0	3116001.0	0.223220	-0.730244
     29077.82	0.13045	1942681.0	1553821.0	3225740.0	0.223352	-0.730445
     29078.31	0.12896	1924194.0	1539009.0	3193818.0	0.223368	-0.730078
     29078.79	0.13103	1975124.0	1579289.0	3278185.0	0.223656	-0.730315
     29079.28	0.12417	1809632.0	1447459.0	3004537.0	0.223314	-0.730314
     29079.76	0.14486	2074395.0	1659157.0	3443333.0	0.223360	-0.730130
     29080.25	0.10933	1609216.0	1286784.0	2671036.0	0.223601	-0.730320
     29080.74	0.11484	1678864.0	1343290.0	2787187.0	0.222996	-0.729911
     29081.22	0.12682	1866345.0	1493273.0	3098593.0	0.223012	-0.729978
     29081.71	0.12527	1864077.0	1491527.0	3095230.0	0.222966	-0.730062
     29082.20	0.13178	1932109.0	1545640.0	3205982.0	0.223174	-0.729580
     29082.68	0.12254	1794870.0	1435861.0	2979064.0	0.223168	-0.729844
     29083.17	0.12087	1815750.0	1452954.0	3014267.0	0.222900	-0.729758
     29083.65	0.12421	1832214.0	1465622.0	3040777.0	0.223245	-0.729833
     29084.14	0.11274	1678499.0	1342986.0	2785980.0	0.223004	-0.729704
     29084.63	0.12644	1849104.0	1479449.0	3069158.0	0.223031	-0.729734
     29085.11	0.12134	1787678.0	1430328.0	2966809.0	0.223014	-0.729583
     29085.60	0.11683	1708513.0	1366901.0	2834550.0	0.223077	-0.729337
     29086.09	0.12686	1896265.0	1517337.0	3147190.0	0.222929	-0.729553
     29086.57	0.11913	1703708.0	1363032.0	2827362.0	0.223095	-0.729632
     29087.06	0.12262	1829144.0	1463805.0	3034854.0	0.222809	-0.729124
     29087.55	0.12171	1770156.0	1416649.0	2937074.0	0.222773	-0.729120
     29088.03	0.12926	1887019.0	1510244.0	3130933.0	0.222727	-0.729060
     29088.52	0.12830	1889397.0	1511734.0	3133667.0	0.223000	-0.728947
     29089.01	0.13006	1890386.0	1513216.0	3136303.0	0.222544	-0.728808
     29089.49	0.13109	1929733.0	1544369.0	3200928.0	0.222766	-0.728825
     29089.98	0.12966	1913663.0	1531309.0	3174049.0	0.222896	-0.728885
     29090.47	0.13295	1924142.0	1540147.0	3192442.0	0.222602	-0.728908
     29090.95	0.12501	1824807.0	1460473.0	3027183.0	0.222714	-0.728872
     29091.44	0.12191	1808447.0	1447703.0	2999622.0	0.222490	-0.728508
     29091.93	0.12266	1809050.0	1448478.0	3001268.0	0.222288	-0.728522
     29092.41	0.12103	1766948.0	1414554.0	2930216.0	0.222439	-0.728262
     29092.90	0.13540	1987697.0	1590918.0	3296771.0	0.222665	-0.728632
     29093.39	0.12499	1860666.0	1489459.0	3084808.0	0.222522	-0.728076
     29093.87	0.13547	1983974.0	1587962.0	3290140.0	0.222650	-0.728479
     29094.36	0.11409	1642571.0	1315179.0	2724472.0	0.222290	-0.728302
     29094.85	0.13515	1992204.0	1594995.0	3303002.0	0.222371	-0.727961
     29095.33	0.13171	1935897.0	1549544.0	3208624.0	0.222610	-0.727881
     29095.82	0.12201	1781677.0	1426457.0	2954010.0	0.222361	-0.727970
     29096.31	0.13737	2000443.0	1601520.0	3316226.0	0.222415	-0.727874
     29096.79	0.13204	1960235.0	1569396.0	3248751.0	0.222374	-0.727580
     29097.28	0.12472	1826738.0	1462506.0	3027801.0	0.222380	-0.727685
     29097.77	0.13257	1945266.0	1557748.0	3224001.0	0.222158	-0.727382
     29098.25	0.12656	1825027.0	1461538.0	3024220.0	0.222105	-0.727164
     29098.74	0.12368	1800795.0	1442303.0	2984407.0	0.221987	-0.727160
     29099.23	0.11617	1717687.0	1375289.0	2845618.0	0.222315	-0.727116
     29099.71	0.12448	1803001.0	1443927.0	2987286.0	0.222086	-0.726999
     29100.20	0.12730	1842060.0	1475094.0	3051973.0	0.222163	-0.727067
     29100.69	0.11659	1707584.0	1367054.0	2828013.0	0.222421	-0.726916
     29101.17	0.13023	1901014.0	1522446.0	3149063.0	0.222069	-0.726787
     29101.66	0.11711	1659687.0	1329071.0	2748407.0	0.222149	-0.726541
     29102.15	0.11853	1725592.0	1381596.0	2857171.0	0.222331	-0.726593
     29102.64	0.12549	1827480.0	1463746.0	3026588.0	0.221939	-0.726437
     29103.12	0.10511	1511271.0	1210789.0	2503109.0	0.221679	-0.726261
     29103.61	0.10665	1544474.0	1236916.0	2557440.0	0.222062	-0.726386
     29104.10	0.12960	1884452.0	1509502.0	3120237.0	0.221857	-0.726129
     29104.58	0.10347	1488373.0	1192052.0	2462991.0	0.222007	-0.725700
     29105.07	0.13234	1862360.0	1491641.0	3082442.0	0.221968	-0.725845
     29105.56	0.10714	1535883.0	1230369.0	2542718.0	0.221791	-0.725919
     29106.04	0.12404	1762780.0	1412389.0	2917132.0	0.221610	-0.725318
     29106.53	0.13300	1947873.0	1560284.0	3222859.0	0.221870	-0.725401
     29107.02	0.12551	1817442.0	1455962.0	3006584.0	0.221763	-0.725138
     29107.51	0.12919	1844086.0	1476921.0	3049500.0	0.222024	-0.725018
     29107.99	0.12083	1745403.0	1398015.0	2885779.0	0.221932	-0.724742
     29108.48	0.13484	1943164.0	1556688.0	3213658.0	0.221757	-0.724849
     29108.97	0.14104	2046346.0	1639353.0	3382380.0	0.221754	-0.724278
     29109.46	0.12141	1749929.0	1401783.0	2892492.0	0.221830	-0.724373
     29109.94	0.13278	1918306.0	1536772.0	3170615.0	0.221758	-0.724241
     29110.43	0.12828	1834243.0	1469491.0	3031723.0	0.221716	-0.724215
     29110.92	0.12720	1823251.0	1460810.0	3012882.0	0.221630	-0.723906
     29111.40	0.12347	1811807.0	1451946.0	2993779.0	0.221420	-0.723632
     29111.89	0.13521	1924956.0	1542301.0	3180147.0	0.221628	-0.723652
     29112.38	0.12623	1782959.0	1428613.0	2944773.0	0.221570	-0.723328
     29112.87	0.13312	1882273.0	1508352.0	3109112.0	0.221462	-0.723319
     29113.35	0.14344	2044778.0	1638567.0	3376257.0	0.221467	-0.722946
     29113.84	0.13061	1866679.0	1495728.0	3080935.0	0.221548	-0.722620
     29114.33	0.13151	1910382.0	1530982.0	3152849.0	0.221394	-0.722397
     29114.82	0.12350	1789947.0	1434302.0	2953060.0	0.221508	-0.722164
     29115.30	0.14023	2013860.0	1613687.0	3322663.0	0.221532	-0.722245
     29115.79	0.12841	1870336.0	1498698.0	3085017.0	0.221521	-0.721960
     29116.28	0.13387	1927598.0	1544691.0	3179164.0	0.221451	-0.721794
     29116.77	0.12587	1844455.0	1477959.0	3040935.0	0.221522	-0.721503
     29117.25	0.12229	1747204.0	1400397.0	2880153.0	0.221261	-0.721088
     29117.74	0.12469	1768783.0	1417831.0	2916303.0	0.221164	-0.721188
     29118.23	0.12731	1814770.0	1454294.0	2989936.0	0.221438	-0.720731
     29118.72	0.12461	1778775.0	1425766.0	2930996.0	0.221216	-0.720633
     29119.20	0.12175	1758519.0	1409320.0	2896142.0	0.221365	-0.720272
     29119.69	0.11760	1691661.0	1355497.0	2785313.0	0.221543	-0.720192
     29120.18	0.13030	1862172.0	1492669.0	3065978.0	0.221178	-0.719801
     29120.67	0.12988	1853806.0	1485750.0	3051048.0	0.221321	-0.719565
     29121.15	0.12294	1752104.0	1404513.0	2883592.0	0.221127	-0.719346
     29121.64	0.11603	1660400.0	1330501.0	2731069.0	0.221503	-0.719138
     29122.13	0.12810	1831134.0	1467496.0	3011444.0	0.221378	-0.718862
     29122.62	0.11979	1697029.0	1359938.0	2790045.0	0.221440	-0.718619
     29123.10	0.12042	1695225.0	1358931.0	2786231.0	0.221117	-0.717991
     29123.59	0.12149	1713960.0	1374177.0	2817357.0	0.220951	-0.717944
     29124.08	0.12452	1772531.0	1421374.0	2912863.0	0.220784	-0.717512
     29124.57	0.12065	1729274.0	1385949.0	2839421.0	0.221317	-0.717215
     29125.06	0.12562	1800288.0	1443086.0	2955804.0	0.221163	-0.716987
     29125.54	0.11260	1620692.0	1299295.0	2660140.0	0.221031	-0.716557
     29126.03	0.13592	1919418.0	1538864.0	3149749.0	0.220978	-0.716278
     29126.52	0.10857	1537931.0	1233091.0	2523814.0	0.220914	-0.716247
     29127.01	0.12800	1816020.0	1455662.0	2977793.0	0.221187	-0.715722
     29127.49	0.12750	1805907.0	1447723.0	2960315.0	0.221071	-0.715304
     29127.98	0.13205	1911887.0	1532662.0	3132669.0	0.221085	-0.714879
     29128.47	0.13367	1929293.0	1546746.0	3161027.0	0.221000	-0.714744
     29128.96	0.12327	1753111.0	1405456.0	2870511.0	0.221030	-0.714128
     29129.45	0.13262	1953002.0	1565809.0	3197511.0	0.220965	-0.713970
     29129.93	0.12831	1840757.0	1475724.0	3011857.0	0.221028	-0.713408
     29130.42	0.10968	1560319.0	1251019.0	2552651.0	0.220932	-0.713174
     29130.91	0.13570	1994168.0	1598757.0	3259650.0	0.221000	-0.712393
     29131.40	0.11197	1633443.0	1309545.0	2669719.0	0.221010	-0.712293
     29131.89	0.12703	1847352.0	1480930.0	3017426.0	0.221083	-0.711734
     29132.37	0.12760	1845831.0	1479619.0	3013900.0	0.221145	-0.711450
     29132.86	0.12924	1859233.0	1490444.0	3034126.0	0.221090	-0.710849
     29133.35	0.12681	1827940.0	1465274.0	2982077.0	0.221147	-0.710578
     29133.84	0.13527	1925220.0	1543317.0	3138832.0	0.221106	-0.709917
     29134.33	0.12524	1822439.0	1461074.0	2970171.0	0.221004	-0.709448
     29134.81	0.12909	1840753.0	1476541.0	3000330.0	0.220473	-0.709020
     29135.30	0.11753	1684049.0	1350023.0	2742238.0	0.221079	-0.708653
     29135.79	0.13690	2010865.0	1611991.0	3272586.0	0.221095	-0.708110
     29136.28	0.13611	2021941.0	1620919.0	3288956.0	0.221065	-0.707577
     29136.77	0.12822	1864010.0	1494842.0	3031811.0	0.220710	-0.707140
     29137.25	0.13255	1926110.0	1544301.0	3130322.0	0.220931	-0.706564
     29137.74	0.12071	1759611.0	1410676.0	2857175.0	0.221024	-0.705764
     29138.23	0.12244	1777999.0	1425830.0	2887024.0	0.220734	-0.705472
     29138.72	0.13632	1972115.0	1581524.0	3199984.0	0.220718	-0.704757
     29139.21	0.11767	1726364.0	1383925.0	2798512.0	0.221094	-0.704164
     29139.70	0.11665	1666021.0	1336275.0	2700240.0	0.220552	-0.703455
     29140.18	0.13292	1965674.0	1576135.0	3182972.0	0.220860	-0.702840
     29140.67	0.11432	1643906.0	1317929.0	2660211.0	0.221014	-0.702344
     29141.16	0.13153	1893966.0	1518688.0	3063601.0	0.220826	-0.701744
     29141.65	0.12158	1760268.0	1411217.0	2845239.0	0.221014	-0.701195
     29142.14	0.12248	1769777.0	1419194.0	2859324.0	0.220764	-0.700496
     29142.63	0.11810	1735421.0	1391534.0	2801441.0	0.220843	-0.699727
     29143.11	0.11055	1617603.0	1296888.0	2609125.0	0.220978	-0.699047
     29143.60	0.12373	1813212.0	1453989.0	2923168.0	0.220789	-0.698357
     29144.09	0.11552	1660112.0	1330904.0	2673517.0	0.221027	-0.697536
     29144.58	0.11198	1614537.0	1294281.0	2598540.0	0.221093	-0.696994
     29145.07	0.10756	1562571.0	1252860.0	2513182.0	0.220904	-0.696121
     29145.56	0.13492	1956792.0	1568795.0	3144274.0	0.220999	-0.695275
     29146.04	0.12376	1790837.0	1435682.0	2874645.0	0.221043	-0.694289
     29146.53	0.12377	1789569.0	1434647.0	2870136.0	0.221056	-0.693441
     29147.02	0.11935	1714498.0	1374113.0	2747241.0	0.221312	-0.692789
     29147.51	0.12956	1875836.0	1504236.0	3004494.0	0.220769	-0.691824
     29148.00	0.13739	1984954.0	1591531.0	3175109.0	0.220899	-0.690646
     29148.49	0.11894	1721346.0	1379756.0	2751263.0	0.221200	-0.690153
     29148.98	0.12933	1891329.0	1516190.0	3019291.0	0.221079	-0.688821
     29149.46	0.12737	1874761.0	1502761.0	2990317.0	0.221177	-0.688075
     29149.95	0.15878	2293544.0	1838585.0	3654594.0	0.221102	-0.686989
     29150.44	0.11267	1631303.0	1307748.0	2596954.0	0.221073	-0.686033
     29150.93	0.11223	1601147.0	1283070.0	2545010.0	0.221465	-0.684879
     29151.42	0.13201	1912761.0	1533134.0	3037146.0	0.221234	-0.683604
     29151.91	0.13016	1899360.0	1522138.0	3011894.0	0.221401	-0.682453
     29152.40	0.12632	1837745.0	1472856.0	2911024.0	0.221336	-0.681302
     29152.88	0.12664	1823196.0	1461278.0	2883886.0	0.221280	-0.679827
     29153.37	0.13449	1930256.0	1546875.0	3050154.0	0.221416	-0.678955
     29153.86	0.16502	2374114.0	1902688.0	3745749.0	0.221357	-0.677354
     29154.35	0.12851	1852739.0	1484637.0	2918526.0	0.221495	-0.675908
     29154.84	0.099087	1422544.0	1139891.0	2237341.0	0.221514	-0.674355
     29155.33	0.14144	2052283.0	1644612.0	3223762.0	0.221448	-0.673045
     29155.82	0.12578	1827580.0	1464515.0	2866083.0	0.221469	-0.671422
     29156.31	0.12994	1842847.0	1476481.0	2884628.0	0.221650	-0.669734
     29156.79	0.13298	1893892.0	1517760.0	2961002.0	0.221398	-0.668292
     29157.28	0.13067	1895416.0	1518623.0	2957685.0	0.221634	-0.666603
     29157.77	0.11994	1736987.0	1391434.0	2705621.0	0.221817	-0.664997
     29158.26	0.12623	1826653.0	1463335.0	2840099.0	0.221767	-0.663121
     29158.75	0.13026	1874099.0	1501360.0	2908368.0	0.221757	-0.661221
     29159.24	0.11741	1691128.0	1354427.0	2618472.0	0.222017	-0.659212
     29159.73	0.12777	1843355.0	1476517.0	2848583.0	0.221901	-0.657136
     29160.22	0.12411	1755936.0	1406597.0	2708501.0	0.221829	-0.655222
     29160.71	0.14009	1996834.0	1599247.0	3072525.0	0.222030	-0.652967
     29161.19	0.12055	1743750.0	1396355.0	2677227.0	0.222173	-0.650916
     29161.68	0.11688	1657295.0	1327124.0	2537574.0	0.222173	-0.648194
     29162.17	0.12997	1884178.0	1508301.0	2876679.0	0.222508	-0.645653
     29162.66	0.13261	1887298.0	1510856.0	2874327.0	0.222470	-0.643142
     29163.15	0.10864	1551561.0	1241967.0	2356526.0	0.222565	-0.640492
     29163.64	0.13130	1860286.0	1488625.0	2815994.0	0.222877	-0.637462
     29164.13	0.10383	1489884.0	1192061.0	2247953.0	0.223015	-0.634336
     29164.62	0.13365	1932394.0	1546251.0	2905844.0	0.222926	-0.630891
     29165.11	0.12026	1763253.0	1410458.0	2643269.0	0.223246	-0.628102
     29165.60	0.12399	1773550.0	1418373.0	2647341.0	0.223473	-0.624045
     29166.09	0.11654	1700864.0	1360541.0	2530374.0	0.223254	-0.620485
     29166.57	0.12770	1850513.0	1479695.0	2741289.0	0.223627	-0.616592
     29167.06	0.12326	1757908.0	1405799.0	2593831.0	0.223519	-0.612530
     29167.55	0.13000	1843071.0	1473759.0	2706840.0	0.223617	-0.607966
     29168.04	0.13415	1921384.0	1536051.0	2807415.0	0.223831	-0.603049
     29168.53	0.12357	1766373.0	1411488.0	2567491.0	0.224284	-0.598285
     29169.02	0.12899	1828303.0	1460967.0	2643590.0	0.224290	-0.593039
     29169.51	0.12794	1830012.0	1461751.0	2630102.0	0.224687	-0.587388
     29170.00	0.11329	1592594.0	1271923.0	2274398.0	0.224834	-0.581185
     29170.49	0.13405	1911432.0	1525833.0	2710345.0	0.225312	-0.574535
     29170.98	0.12615	1809204.0	1444204.0	2548367.0	0.225329	-0.567894
     29171.47	0.12350	1760623.0	1404846.0	2460966.0	0.225740	-0.560626
     29171.96	0.12928	1835248.0	1463992.0	2543454.0	0.226013	-0.552356
     29172.45	0.12517	1759399.0	1402900.0	2415547.0	0.226431	-0.543384
     29172.94	0.12444	1775830.0	1415717.0	2416853.0	0.226632	-0.534830
     29173.42	0.13803	1946993.0	1551267.0	2620167.0	0.227214	-0.524166
     29173.91	0.12448	1764143.0	1405103.0	2348452.0	0.227554	-0.513646
     29174.40	0.13379	1913680.0	1523895.0	2515115.0	0.227759	-0.501049
     29174.89	0.12945	1847596.0	1470638.0	2397152.0	0.228189	-0.488585
     29175.38	0.12174	1744484.0	1387379.0	2231378.0	0.229042	-0.475203
     29175.87	0.13274	1920541.0	1526884.0	2418090.0	0.229378	-0.459749
     29176.36	0.13156	1936730.0	1538401.0	2397012.0	0.230257	-0.443479
     29176.85	0.13131	1861485.0	1478476.0	2256909.0	0.230363	-0.422984
     29177.34	0.12720	1870699.0	1484252.0	2224196.0	0.231401	-0.404485
     29177.83	0.12005	1741022.0	1380097.0	2021745.0	0.232319	-0.381807
     29178.32	0.12613	1835716.0	1454155.0	2076500.0	0.233010	-0.356259
     29178.81	0.13008	1883894.0	1491481.0	2069369.0	0.233571	-0.327474
     29179.30	0.11665	1689700.0	1335922.0	1796128.0	0.234929	-0.296012
     29179.79	0.12498	1805166.0	1425768.0	1850475.0	0.235942	-0.260732
     29180.28	0.11681	1703005.0	1343677.0	1679491.0	0.236984	-0.223081
     29180.77	0.13175	1912219.0	1506442.0	1799489.0	0.238514	-0.177752
     29181.26	0.11054	1593400.0	1253571.0	1427272.0	0.239874	-0.129769
     29181.75	0.11400	1667365.0	1309507.0	1414057.0	0.241594	-0.0768121
     29182.24	0.12252	1777472.0	1393369.0	1415300.0	0.243468	-0.0156170
     29182.73	0.11080	1590071.0	1243760.0	1186650.0	0.245640	0.0470048
     29183.22	0.11555	1647153.0	1285751.0	1144766.0	0.247705	0.116143
     29183.71	0.12263	1761375.0	1370934.0	1139872.0	0.250602	0.184576
     29184.20	0.11897	1709351.0	1327163.0	1026037.0	0.253070	0.257340
     29184.68	0.11267	1665629.0	1289291.0	925666.0	0.256110	0.331334
     29185.17	0.13114	1918132.0	1478871.0	985696.0	0.260073	0.405686
     29185.66	0.11496	1697945.0	1304244.0	808200.0	0.263795	0.478569
     29186.15	0.13260	1938728.0	1483079.0	859957.0	0.267912	0.544993
     29186.64	0.12317	1818543.0	1384380.0	752893.0	0.272783	0.609085
     29187.13	0.12803	1883604.0	1427081.0	732943.0	0.277556	0.666318
     29187.62	0.14194	2080183.0	1567290.0	760805.0	0.283108	0.722726
     29188.11	0.13451	1992603.0	1492562.0	693242.0	0.288948	0.766870
     29188.60	0.12746	1837347.0	1367558.0	612187.0	0.295296	0.803744
     29189.09	0.13454	1986653.0	1469766.0	639593.0	0.301348	0.832026
     29189.58	0.11985	1761745.0	1295097.0	553065.0	0.307719	0.850865
     29190.07	0.12664	1871590.0	1368074.0	578012.0	0.313384	0.861565
     29190.56	0.12830	1881394.0	1367163.0	575373.0	0.319275	0.865475
     29191.05	0.13289	1933659.0	1397556.0	589124.0	0.324689	0.863844
     29191.54	0.12749	1837964.0	1322354.0	561161.0	0.329245	0.857161
     29192.03	0.13041	1903336.0	1364311.0	584491.0	0.332959	0.847663
     29192.52	0.13100	1916855.0	1369930.0	594372.0	0.335926	0.835010
     29193.01	0.13301	1946638.0	1388036.0	611340.0	0.338214	0.819992
     29193.50	0.13283	1963261.0	1397375.0	624244.0	0.340011	0.805809
     29193.99	0.13053	1928237.0	1371194.0	621828.0	0.340924	0.790774
     29194.48	0.13574	1970114.0	1401073.0	646040.0	0.340853	0.774132
     29194.97	0.13235	1932154.0	1374859.0	642981.0	0.340284	0.759991
     29195.46	0.12684	1867017.0	1330117.0	630452.0	0.339075	0.746585
     29195.95	0.12343	1808040.0	1290066.0	619794.0	0.337550	0.733061
     29196.44	0.12959	1891536.0	1352470.0	657095.0	0.335457	0.721859
     29196.93	0.12160	1763354.0	1263775.0	621161.0	0.333114	0.710268
     29197.42	0.12157	1765552.0	1268206.0	628637.0	0.330860	0.701805
     29197.92	0.12600	1875694.0	1350488.0	674530.0	0.328513	0.694205
     29198.41	0.13004	1918038.0	1384789.0	696849.0	0.325755	0.686734
     29198.90	0.12312	1812559.0	1312134.0	664136.0	0.323085	0.680923
     29199.39	0.12343	1839385.0	1334142.0	678226.0	0.321143	0.676563
     29199.88	0.13076	1929172.0	1403329.0	716453.0	0.318244	0.672290
     29200.37	0.12909	1898890.0	1384714.0	709397.0	0.315776	0.668834
     29200.86	0.11775	1719320.0	1256499.0	645055.0	0.313600	0.666749
     29201.35	0.13330	1983712.0	1452577.0	745814.0	0.311631	0.666618
     29201.84	0.11574	1671953.0	1226417.0	630167.0	0.309895	0.665867
     29202.33	0.12502	1827664.0	1343238.0	690163.0	0.307956	0.665911
     29202.82	0.11502	1680540.0	1236647.0	634592.0	0.306711	0.667177
     29203.31	0.11973	1766980.0	1301996.0	667329.0	0.305373	0.668371
     29203.80	0.12923	1924085.0	1419110.0	725764.0	0.304421	0.670560
     29204.29	0.11410	1690597.0	1248255.0	636989.0	0.303335	0.672749
     29204.78	0.11551	1682515.0	1243956.0	632955.0	0.301993	0.675653
     29205.27	0.13052	1943326.0	1437745.0	729450.0	0.301325	0.678540
     29205.76	0.12068	1783010.0	1320462.0	667663.0	0.300321	0.681953
     29206.25	0.14711	2138397.0	1584556.0	799106.0	0.299752	0.684566
     29206.74	0.12849	1889072.0	1400632.0	704492.0	0.299162	0.687202
     29207.23	0.12655	1818509.0	1349594.0	676896.0	0.298213	0.690041
     29207.72	0.13364	1935397.0	1436994.0	718909.0	0.297759	0.692574
     29208.21	0.12311	1774557.0	1317720.0	657965.0	0.297648	0.694507
     29208.70	0.12943	1837177.0	1365715.0	680069.0	0.296552	0.697239
     29209.19	0.11320	1662583.0	1236755.0	614742.0	0.295881	0.699044
     29209.69	0.12412	1802704.0	1341580.0	666151.0	0.295440	0.700087
     29210.18	0.12686	1843072.0	1372392.0	680774.0	0.294879	0.701080
     29210.67	0.12166	1749050.0	1303406.0	646096.0	0.294092	0.701788
     29211.16	0.12941	1891365.0	1410282.0	698604.0	0.293509	0.702461
     29211.65	0.13227	1958205.0	1460670.0	723741.0	0.293133	0.702217
     29212.14	0.12478	1847824.0	1379408.0	683575.0	0.292354	0.702073
     29212.63	0.12199	1792479.0	1339277.0	664442.0	0.291470	0.700938
     29213.12	0.13012	1869600.0	1397708.0	694775.0	0.290891	0.699001
     29213.61	0.13257	1919067.0	1435457.0	715044.0	0.290356	0.696894
     29214.10	0.12668	1872515.0	1401308.0	699548.0	0.289876	0.694727
     29214.59	0.12696	1856284.0	1390054.0	695905.0	0.289234	0.691885
     29215.08	0.13508	1983666.0	1486602.0	747004.0	0.288454	0.688178
     29215.57	0.13147	1944744.0	1458721.0	736182.0	0.287570	0.683838
     29216.06	0.12272	1794059.0	1346151.0	681826.0	0.287231	0.680230
     29216.56	0.12614	1861294.0	1397611.0	710479.0	0.286508	0.676580
     29217.05	0.12297	1797295.0	1349507.0	689551.0	0.286543	0.671454
     29217.54	0.12534	1818534.0	1366416.0	701190.0	0.285839	0.667168
     29218.03	0.12263	1793454.0	1347430.0	694144.0	0.285944	0.663275
     29218.52	0.12697	1861843.0	1399525.0	723729.0	0.285434	0.659471
     29219.01	0.12277	1798433.0	1352075.0	701707.0	0.285275	0.655880
     29219.50	0.12721	1830059.0	1375811.0	715788.0	0.285305	0.653415
     29219.99	0.14439	2087616.0	1569767.0	818249.0	0.285096	0.651516
     29220.48	0.10129	1468908.0	1104306.0	576326.0	0.285302	0.650299
     29220.97	0.10638	1553843.0	1167809.0	610246.0	0.285602	0.649022
     29221.47	0.11707	1691691.0	1271895.0	664430.0	0.285221	0.649334
     29221.96	0.11403	1601303.0	1203390.0	628407.0	0.285675	0.649710
     29222.45	0.11913	1708585.0	1283660.0	669014.0	0.285950	0.651666
     29222.94	0.12121	1729980.0	1299800.0	676053.0	0.285899	0.653694
     29223.43	0.12988	1856955.0	1394602.0	723407.0	0.286329	0.656392
     29223.92	0.11892	1723779.0	1294445.0	669417.0	0.286437	0.659430
     29224.41	0.097800	1404599.0	1054132.0	543296.0	0.287034	0.662819
     29224.90	0.13953	2008133.0	1506839.0	774035.0	0.287191	0.666152
     29225.39	0.11901	1719825.0	1290295.0	659819.0	0.287352	0.670661
     29225.89	0.13683	1991125.0	1493302.0	761365.0	0.287710	0.673632
     29226.38	0.12663	1853048.0	1389008.0	705196.0	0.288242	0.677869
     29226.87	0.14249	2066231.0	1548424.0	783143.0	0.288489	0.681678
     29227.36	0.14770	2163887.0	1620912.0	816369.0	0.288917	0.685878
     29227.85	0.16476	2399633.0	1797112.0	901994.0	0.289135	0.689328
     29228.34	0.084011	1230393.0	921018.0	460082.0	0.289609	0.694075
     29228.83	0.12862	1864642.0	1395832.0	694480.0	0.289578	0.698083
     29229.32	0.10545	1511726.0	1131104.0	560657.0	0.290058	0.701840
     29229.81	0.12779	1830959.0	1369417.0	676113.0	0.290455	0.705780
     29230.31	0.13356	1950435.0	1458155.0	717138.0	0.290880	0.709659
     29230.80	0.13776	2004912.0	1498064.0	733893.0	0.291427	0.713566
     29231.29	0.15446	2231342.0	1666996.0	813481.0	0.291580	0.717456
     29231.78	0.14219	2043047.0	1525984.0	741837.0	0.291803	0.721265
     29232.27	0.090279	1283209.0	957624.0	463969.0	0.292664	0.724637
     29232.76	0.12842	1879849.0	1402518.0	676961.0	0.292922	0.728411
     29233.25	0.13516	1945219.0	1451148.0	697720.0	0.293020	0.732292
     29233.75	0.13262	1874367.0	1397610.0	669855.0	0.293507	0.735458
     29234.24	0.13476	1908356.0	1422580.0	679804.0	0.293770	0.738423
     29234.73	0.14018	2027612.0	1510614.0	720082.0	0.294343	0.740906
     29235.22	0.17891	2559849.0	1906104.0	906686.0	0.294887	0.743020
     29235.71	0.088613	1280297.0	953156.0	452343.0	0.295069	0.745338
     29236.20	0.094899	1365198.0	1015745.0	481290.0	0.295677	0.746908
     29236.69	0.11806	1701451.0	1265384.0	599130.0	0.296106	0.747652
     29237.19	0.13175	1866275.0	1387648.0	656307.0	0.296334	0.748737
     29237.68	0.11694	1710114.0	1270972.0	601577.0	0.296778	0.747983
     29238.17	0.13636	1934201.0	1437285.0	680619.0	0.296938	0.747509
     29238.66	0.12471	1824097.0	1354827.0	641936.0	0.297411	0.746940
     29239.15	0.14641	2139418.0	1588547.0	753709.0	0.297714	0.745569
     29239.64	0.10046	1436623.0	1066457.0	507283.0	0.297953	0.743028
     29240.14	0.11670	1690537.0	1254692.0	597955.0	0.298156	0.741130
     29240.63	0.12578	1776875.0	1318522.0	630194.0	0.298345	0.738239
     29241.12	0.11995	1725630.0	1280499.0	613515.0	0.298342	0.735800
     29241.61	0.11602	1690320.0	1253398.0	602984.0	0.299060	0.731723
     29242.10	0.12859	1838098.0	1362859.0	657758.0	0.299147	0.728503
     29242.59	0.11576	1672204.0	1239242.0	600249.0	0.299643	0.724911
     29243.09	0.12325	1788129.0	1325005.0	644069.0	0.299754	0.721366
     29243.58	0.12767	1855625.0	1375313.0	670888.0	0.299540	0.717834
     29244.07	0.11159	1599789.0	1185107.0	580767.0	0.300039	0.713239
     29244.56	0.12878	1876458.0	1389966.0	683744.0	0.300107	0.709451
     29245.05	0.12800	1880106.0	1392700.0	687803.0	0.300084	0.705497
     29245.55	0.13488	1937405.0	1434922.0	711383.0	0.300239	0.701655
     29246.04	0.13301	1933976.0	1432183.0	713075.0	0.300378	0.697369
     29246.53	0.12469	1797735.0	1331179.0	665311.0	0.300463	0.693566
     29247.02	0.13663	1982526.0	1468029.0	736298.0	0.300451	0.690041
     29247.51	0.10386	1491639.0	1104331.0	555791.0	0.300636	0.686603
     29248.00	0.13611	1974590.0	1461831.0	738090.0	0.300671	0.683379
     29248.50	0.11459	1631685.0	1207793.0	611838.0	0.300818	0.680082
     29248.99	0.13280	1895409.0	1403094.0	712634.0	0.300755	0.677467
     29249.48	0.11209	1630941.0	1207233.0	615017.0	0.300826	0.674436
     29249.97	0.13259	1875441.0	1387935.0	709027.0	0.301027	0.671679
     29250.46	0.13624	1961131.0	1451544.0	742957.0	0.300894	0.669745
     29250.96	0.12664	1852616.0	1371434.0	703205.0	0.300742	0.667964
     29251.45	0.12580	1834763.0	1357905.0	697383.0	0.300972	0.666364
     29251.94	0.12691	1833634.0	1357271.0	698162.0	0.300824	0.664780
     29252.43	0.13134	1894213.0	1401995.0	721706.0	0.300907	0.664034
     29252.92	0.12642	1849018.0	1368812.0	705548.0	0.300711	0.662724
     29253.42	0.13241	1927862.0	1427474.0	735755.0	0.300505	0.662765
     29253.91	0.13545	1981933.0	1467365.0	756500.0	0.300604	0.662521
     29254.40	0.13552	1962783.0	1453477.0	749223.0	0.300405	0.662677
     29254.89	0.11812	1696895.0	1257127.0	647690.0	0.299971	0.663172
     29255.39	0.11893	1706730.0	1264379.0	650854.0	0.299998	0.664051
     29255.88	0.12557	1822516.0	1350252.0	694515.0	0.299927	0.664833
     29256.37	0.12656	1831849.0	1356835.0	697351.0	0.300171	0.665621
     29256.86	0.12815	1868008.0	1384012.0	710820.0	0.299886	0.666323
     29257.35	0.12685	1828031.0	1355522.0	694753.0	0.299053	0.668386
     29257.85	0.12979	1896257.0	1405625.0	719592.0	0.299400	0.669553
     29258.34	0.17895	2581573.0	1914517.0	977764.0	0.298934	0.671952
     29258.83	0.10756	1538353.0	1140715.0	581573.0	0.299057	0.673674
     29259.32	0.097529	1409647.0	1045881.0	532169.0	0.298480	0.675654
     29259.82	0.10128	1440860.0	1069327.0	542670.0	0.298211	0.678283
     29260.31	0.10114	1450393.0	1076617.0	544664.0	0.298011	0.681410
     29260.80	0.11033	1592174.0	1182195.0	596693.0	0.297727	0.683725
     29261.29	0.15709	2278290.0	1691672.0	851455.0	0.297708	0.686526
     29261.79	0.15851	2259694.0	1678343.0	842072.0	0.297422	0.689697
     29262.28	0.11966	1697760.0	1261530.0	630962.0	0.296984	0.692835
     29262.77	0.087969	1224214.0	910022.0	453538.0	0.296586	0.696390
     29263.26	0.082679	1187784.0	883258.0	438767.0	0.296227	0.699649
     29263.75	0.11609	1694674.0	1260364.0	624417.0	0.296090	0.702337
     29264.25	0.13591	1969596.0	1464797.0	723222.0	0.296112	0.705756
     29264.74	0.13097	1884986.0	1402134.0	690338.0	0.295925	0.708569
     29265.23	0.15525	2268696.0	1688483.0	828327.0	0.295375	0.712178
     29265.72	0.13690	1983404.0	1476593.0	722164.0	0.295077	0.715240
     29266.22	0.12773	1842049.0	1371840.0	668416.0	0.294726	0.718997
     29266.71	0.12234	1779821.0	1325601.0	644581.0	0.294647	0.721021
     29267.20	0.11423	1659702.0	1236694.0	599424.0	0.294196	0.724228
     29267.70	0.12161	1780351.0	1326838.0	641619.0	0.294012	0.726559
     29268.19	0.12310	1778608.0	1325679.0	639682.0	0.293906	0.728709
     29268.68	0.13278	1908782.0	1422796.0	684875.0	0.293841	0.731143
     29269.17	0.13156	1889948.0	1409394.0	677257.0	0.293389	0.732864
     29269.67	0.12570	1799838.0	1342900.0	644557.0	0.292865	0.734023
     29270.16	0.13870	1985296.0	1481065.0	709927.0	0.293007	0.735355
     29270.65	0.13570	1955538.0	1459699.0	698803.0	0.292435	0.736617
     29271.14	0.12301	1763485.0	1316351.0	629683.0	0.292428	0.737402
     29271.64	0.13171	1902282.0	1420187.0	679413.0	0.292266	0.737315
     29272.13	0.13818	1985917.0	1482734.0	709253.0	0.292193	0.737431
     29272.62	0.12577	1810450.0	1352032.0	646754.0	0.291967	0.737398
     29273.11	0.13842	1996504.0	1491441.0	713464.0	0.291655	0.737366
     29273.61	0.12364	1791756.0	1338870.0	641041.0	0.291370	0.736488
     29274.10	0.12245	1729496.0	1292262.0	619532.0	0.291436	0.735185
     29274.59	0.13893	2028065.0	1515801.0	727164.0	0.291138	0.734547
     29275.09	0.11323	1619171.0	1210380.0	581851.0	0.290980	0.732475
     29275.58	0.12506	1806968.0	1351188.0	650140.0	0.290666	0.731552
     29276.07	0.12971	1864397.0	1394242.0	672125.0	0.290587	0.729662
     29276.56	0.12428	1766141.0	1320993.0	637547.0	0.290413	0.728511
     29277.06	0.13078	1881138.0	1406922.0	680439.0	0.290473	0.726421
     29277.55	0.11990	1713363.0	1281533.0	621024.0	0.290401	0.724443
     29278.04	0.12590	1824615.0	1364645.0	662685.0	0.290475	0.722350
     29278.54	0.11480	1650061.0	1234473.0	601030.0	0.290168	0.719755
     29279.03	0.12745	1817946.0	1360622.0	663109.0	0.289765	0.718758
     29279.52	0.11853	1703372.0	1274669.0	622530.0	0.289923	0.716650
     29280.02	0.12932	1875031.0	1403310.0	686648.0	0.289791	0.714767
     29280.51	0.11106	1594722.0	1193832.0	585211.0	0.289531	0.712951
     29281.00	0.13085	1899844.0	1422268.0	698226.0	0.289519	0.711465
     29281.49	0.10628	1523941.0	1140746.0	561323.0	0.289617	0.709141
     29281.99	0.12427	1808082.0	1353305.0	667179.0	0.289717	0.707247
     29282.48	0.12917	1853173.0	1387441.0	684691.0	0.289438	0.706249
     29282.97	0.12721	1815244.0	1359132.0	672020.0	0.289374	0.704313
     29283.47	0.12583	1827106.0	1368140.0	677315.0	0.289281	0.703071
     29283.96	0.13368	1966074.0	1471733.0	729694.0	0.289598	0.701571
     29284.45	0.12581	1840977.0	1378365.0	684290.0	0.289398	0.700271
     29284.95	0.13585	1957178.0	1465813.0	728767.0	0.289094	0.698811
     29285.44	0.12187	1735567.0	1299613.0	646717.0	0.289268	0.697913
     29285.93	0.11897	1719765.0	1287896.0	641610.0	0.289178	0.696785
     29286.43	0.12874	1839568.0	1377499.0	687088.0	0.289261	0.695562
     29286.92	0.11684	1657777.0	1241461.0	619568.0	0.289189	0.695022
     29287.41	0.12901	1855479.0	1389543.0	693966.0	0.289168	0.694307
     29287.91	0.11964	1724158.0	1290849.0	645301.0	0.289439	0.693339
     29288.40	0.13178	1897146.0	1420307.0	710349.0	0.289478	0.692872
     29288.89	0.13724	1978060.0	1480896.0	741129.0	0.289469	0.692228
     29289.39	0.12475	1808222.0	1353933.0	677786.0	0.289330	0.691937
     29289.88	0.11957	1735073.0	1298686.0	650381.0	0.289697	0.691550
     29290.37	0.13580	1936664.0	1450169.0	726387.0	0.289287	0.691352
     29290.87	0.12860	1839655.0	1377451.0	690307.0	0.289343	0.690854
     29291.36	0.13254	1916665.0	1435257.0	719100.0	0.289243	0.691099
     29291.85	0.13330	1953031.0	1462268.0	732900.0	0.289394	0.690735
     29292.35	0.14732	2114046.0	1582775.0	793566.0	0.289424	0.690398
     29292.84	0.11577	1628279.0	1218809.0	611150.0	0.289649	0.690287
     29293.33	0.11248	1605002.0	1201406.0	601850.0	0.289632	0.691240
     29293.83	0.12769	1833449.0	1372153.0	688007.0	0.289818	0.690337
     29294.32	0.12601	1787503.0	1337490.0	670378.0	0.290025	0.690708
     29294.81	0.12115	1735439.0	1298741.0	650660.0	0.289865	0.691163
     29295.31	0.13145	1901094.0	1422410.0	712176.0	0.290077	0.691783
     29295.80	0.14251	2056677.0	1538959.0	770497.0	0.289985	0.691826
     29296.29	0.12211	1762622.0	1319042.0	660161.0	0.289897	0.692177
     29296.79	0.099526	1443801.0	1080404.0	540230.0	0.289944	0.693095
     29297.28	0.11998	1710874.0	1280103.0	639981.0	0.290064	0.693257
     29297.77	0.11855	1703225.0	1274009.0	636496.0	0.290355	0.693946
     29298.27	0.10952	1576661.0	1179250.0	588917.0	0.290431	0.694349
     29298.76	0.10749	1541814.0	1153071.0	575416.0	0.290531	0.695091
     29299.26	0.14592	2110443.0	1578450.0	786837.0	0.290455	0.696178
     29299.75	0.14143	2013353.0	1505775.0	750687.0	0.290494	0.696074
     29300.24	0.13074	1846390.0	1381022.0	687653.0	0.290409	0.697295
     29300.74	0.075971	1081592.0	808834.0	402370.0	0.290596	0.698222
     29301.23	0.094846	1313781.0	982488.0	488301.0	0.290576	0.699156
     29301.72	0.13442	1904804.0	1423691.0	707456.0	0.291126	0.699333
     29302.22	0.12602	1791046.0	1339178.0	664396.0	0.290744	0.700933
     29302.71	0.12803	1830613.0	1368510.0	678883.0	0.290928	0.701029
     29303.21	0.14917	2086803.0	1560428.0	773197.0	0.290673	0.702182
     29303.70	0.14861	2119276.0	1584637.0	784455.0	0.290719	0.703121
     29304.19	0.11160	1587920.0	1186920.0	587130.0	0.291063	0.703871
     29304.69	0.11406	1604012.0	1198953.0	592365.0	0.291059	0.705081
     29305.18	0.12626	1766032.0	1320178.0	652260.0	0.290969	0.705079
     29305.67	0.12672	1754927.0	1312012.0	647628.0	0.290865	0.706001
     29306.17	0.12016	1690166.0	1263211.0	622838.0	0.291170	0.707126
     29306.66	0.16787	2326288.0	1738863.0	856466.0	0.291042	0.708172
     29307.16	0.11120	1601904.0	1196972.0	589306.0	0.291398	0.708605
     29307.65	0.17845	2531854.0	1891853.0	930793.0	0.291395	0.709275
     29308.14	0.10141	1452770.0	1085521.0	533695.0	0.291412	0.709991
     29308.64	0.11104	1578652.0	1179880.0	579549.0	0.291159	0.710918
     29309.13	0.12887	1859466.0	1389583.0	682241.0	0.291286	0.711376
     29309.63	0.12746	1849347.0	1381966.0	678028.0	0.291325	0.712074
     29310.12	0.14049	2037980.0	1522564.0	746962.0	0.291563	0.712137
     29310.61	0.13791	1980481.0	1479486.0	725385.0	0.291645	0.712747
     29311.11	0.13078	1898018.0	1417888.0	695024.0	0.291642	0.712977
     29311.60	0.13770	1997156.0	1492010.0	730911.0	0.291600	0.713588
     29312.10	0.12040	1736255.0	1296792.0	635215.0	0.291837	0.713685
     29312.59	0.11868	1683867.0	1258075.0	615908.0	0.291510	0.714240
     29313.08	0.13381	1893360.0	1414648.0	692354.0	0.291472	0.714539
     29313.58	0.12312	1790976.0	1337816.0	654526.0	0.291722	0.714882
     29314.07	0.11795	1712832.0	1279345.0	626014.0	0.291800	0.714731
     29314.57	0.12714	1857054.0	1387103.0	678496.0	0.291774	0.715094
     29315.06	0.12542	1845634.0	1378590.0	674430.0	0.291762	0.714949
     29315.56	0.13719	2010342.0	1501705.0	734305.0	0.291704	0.715432
     29316.05	0.10848	1585076.0	1183794.0	578942.0	0.291908	0.715278
     29316.54	0.12423	1780019.0	1329735.0	650227.0	0.291644	0.715413
     29317.04	0.11597	1700943.0	1270444.0	621283.0	0.291816	0.715335
     29317.53	0.13082	1908924.0	1425605.0	697301.0	0.291943	0.715134
     29318.03	0.12311	1799564.0	1343996.0	657035.0	0.291897	0.715665
     29318.52	0.12148	1762999.0	1316859.0	644001.0	0.291767	0.715304
     29319.02	0.11483	1682512.0	1256527.0	614634.0	0.291936	0.715080
     29319.51	0.12460	1836353.0	1371540.0	670835.0	0.291847	0.715166
     29320.00	0.11813	1718120.0	1283236.0	627587.0	0.291846	0.715258
     29320.50	0.11956	1767600.0	1320209.0	645772.0	0.291833	0.715099
     29320.99	0.11926	1736998.0	1297654.0	634862.0	0.291600	0.714906
     29321.49	0.12312	1820108.0	1359542.0	665438.0	0.291748	0.714458
     29321.98	0.13636	2016571.0	1505927.0	737432.0	0.291990	0.713990
     29322.48	0.13816	2040103.0	1523308.0	746146.0	0.292116	0.713718
     29322.97	0.12328	1818372.0	1358161.0	665338.0	0.291810	0.713592
     29323.47	0.13035	1905970.0	1423258.0	697581.0	0.292042	0.713085
     29323.96	0.12445	1836345.0	1371307.0	672639.0	0.292013	0.712311
     29324.45	0.12739	1894665.0	1414590.0	694010.0	0.292202	0.712109
     29324.95	0.11928	1736918.0	1297026.0	636620.0	0.292038	0.711656
     29325.44	0.13034	1929250.0	1440304.0	707339.0	0.292277	0.711099
     29325.94	0.12485	1861669.0	1390312.0	682471.0	0.291945	0.711563
     29326.43	0.12885	1890493.0	1411870.0	693736.0	0.291923	0.710579
     29326.93	0.12962	1907752.0	1425252.0	700893.0	0.291577	0.709749
     29327.42	0.12418	1820253.0	1359501.0	668854.0	0.291858	0.709307
     29327.92	0.11494	1690226.0	1262337.0	621335.0	0.291897	0.708850
     29328.41	0.13947	2083320.0	1555979.0	766192.0	0.291858	0.708427
     29328.91	0.12124	1777011.0	1327755.0	654134.0	0.291443	0.707933
     29329.40	0.13091	1918631.0	1433187.0	706327.0	0.291711	0.707578
     29329.89	0.13155	1931068.0	1442391.0	711508.0	0.291771	0.706671
     29330.39	0.14195	2093860.0	1564203.0	771928.0	0.291633	0.706240
     29330.88	0.12827	1888576.0	1410685.0	696502.0	0.291748	0.705760
     29331.38	0.12889	1889092.0	1411547.0	697293.0	0.291410	0.705236
     29331.87	0.11398	1683801.0	1257756.0	621712.0	0.291725	0.704607
     29332.37	0.11596	1696593.0	1267641.0	626770.0	0.291464	0.704333
     29332.86	0.13474	1971372.0	1472825.0	728792.0	0.291547	0.703549
     29333.36	0.12241	1810622.0	1352613.0	669543.0	0.291632	0.703198
     29333.85	0.12628	1858403.0	1388365.0	687441.0	0.291591	0.702906
     29334.35	0.12591	1846956.0	1380246.0	683685.0	0.291277	0.702520
     29334.84	0.13493	1944360.0	1453071.0	720226.0	0.291254	0.701869
     29335.34	0.11607	1684708.0	1259181.0	624161.0	0.291131	0.701808
     29335.83	0.12334	1785316.0	1334266.0	661871.0	0.291214	0.701066
     29336.33	0.10731	1537634.0	1149328.0	569934.0	0.291067	0.701412
     29336.82	0.12589	1797323.0	1343890.0	666748.0	0.290730	0.700912
     29337.32	0.11292	1623666.0	1213907.0	602537.0	0.290842	0.700450
     29337.81	0.11594	1637587.0	1223935.0	607823.0	0.291153	0.699943
     29338.31	0.12041	1738450.0	1299716.0	645623.0	0.290848	0.699685
     29338.80	0.12868	1836589.0	1373071.0	682116.0	0.290860	0.699605
     29339.30	0.11839	1714804.0	1282242.0	637226.0	0.290689	0.699241
     29339.79	0.10107	1466842.0	1096858.0	545418.0	0.290662	0.698653
     29340.29	0.12033	1742384.0	1303092.0	647975.0	0.290514	0.698643
     29340.78	0.12408	1795287.0	1342678.0	667779.0	0.290499	0.698464
     29341.28	0.12909	1878981.0	1405150.0	698941.0	0.290586	0.698333
     29341.77	0.13430	1907042.0	1426390.0	709723.0	0.290407	0.698027
     29342.27	0.15129	2157320.0	1613787.0	803283.0	0.290283	0.697632
     29342.76	0.14950	2137752.0	1599091.0	796284.0	0.290319	0.697235
     29343.26	0.12147	1729883.0	1294195.0	644405.0	0.290165	0.697317
     29343.75	0.091772	1285035.0	961245.0	478695.0	0.290312	0.697166
     29344.25	0.13599	1964975.0	1470315.0	731784.0	0.290003	0.697747
     29344.74	0.12340	1754777.0	1313004.0	653729.0	0.290024	0.697380
     29345.24	0.12998	1861866.0	1393354.0	693811.0	0.289865	0.697269
     29345.73	0.13199	1908012.0	1427837.0	710991.0	0.289901	0.697256
     29346.23	0.11783	1687186.0	1262735.0	628911.0	0.289782	0.697046
     29346.72	0.15390	2212859.0	1656084.0	824561.0	0.289830	0.697360
     29347.22	0.11728	1681850.0	1259038.0	627213.0	0.289546	0.696817
     29347.72	0.12143	1738540.0	1301677.0	648510.0	0.289392	0.696731
     29348.21	0.13952	1978792.0	1481911.0	737907.0	0.289154	0.697270
     29348.71	0.12839	1836162.0	1374975.0	684697.0	0.289242	0.697214
     29349.20	0.14129	2024733.0	1515989.0	754688.0	0.289370	0.697519
     29349.70	0.13581	1915785.0	1435149.0	714700.0	0.288859	0.697161
     29350.19	0.13235	1889446.0	1415171.0	704735.0	0.289033	0.697184
     29350.69	0.13739	1957908.0	1466679.0	730441.0	0.288876	0.697107
     29351.18	0.12195	1735512.0	1300333.0	647303.0	0.288682	0.697561
     29351.68	0.12047	1717552.0	1286861.0	640736.0	0.288694	0.697344
     29352.17	0.12164	1729011.0	1295350.0	644566.0	0.288769	0.697959
     29352.67	0.13052	1859719.0	1393691.0	693060.0	0.288470	0.698594
     29353.16	0.12550	1806457.0	1353704.0	673311.0	0.288523	0.698392
     29353.66	0.13449	1901689.0	1424871.0	708605.0	0.288661	0.698538
     29354.16	0.12350	1752380.0	1313257.0	653337.0	0.288465	0.698173
     29354.65	0.12560	1744358.0	1307239.0	650037.0	0.288469	0.698643
     29355.15	0.11916	1684895.0	1262644.0	627452.0	0.288495	0.699296
     29355.64	0.12258	1716350.0	1286694.0	639947.0	0.288124	0.698446
     29356.14	0.12066	1740183.0	1304235.0	647969.0	0.288374	0.699529
     29356.63	0.12993	1835174.0	1375723.0	683102.0	0.288160	0.700091
     29357.13	0.12255	1728014.0	1295672.0	643455.0	0.287943	0.699933
     29357.63	0.11848	1683506.0	1262384.0	626532.0	0.287877	0.700557
     29358.12	0.12007	1712124.0	1284131.0	637296.0	0.287652	0.700603
     29358.62	0.12931	1839216.0	1379376.0	684457.0	0.287708	0.700761
     29359.11	0.10738	1506882.0	1130158.0	560776.0	0.287685	0.700791
     29359.61	0.12987	1873436.0	1405230.0	696851.0	0.287573	0.701385
     29360.10	0.12301	1735045.0	1301428.0	645791.0	0.287571	0.700741
     29360.60	0.11672	1656584.0	1242861.0	616302.0	0.287342	0.701434
     29361.09	0.11997	1714038.0	1286105.0	637403.0	0.287234	0.701971
     29361.59	0.13259	1885024.0	1414909.0	701180.0	0.286875	0.702056
     29362.09	0.12921	1845914.0	1384747.0	686126.0	0.287457	0.702211
     29362.58	0.12295	1762168.0	1322381.0	654908.0	0.287111	0.702694
     29363.08	0.13421	1886199.0	1415958.0	701430.0	0.286757	0.702441
     29363.57	0.12603	1786696.0	1340803.0	664092.0	0.287099	0.702603
     29364.07	0.12324	1757681.0	1319419.0	653203.0	0.286804	0.703059
     29364.57	0.13266	1887635.0	1417262.0	701732.0	0.286598	0.702931
     29365.06	0.12996	1849675.0	1388927.0	687516.0	0.286478	0.703202
     29365.56	0.11672	1654984.0	1242503.0	615321.0	0.286663	0.702739
     29366.05	0.11300	1603073.0	1203594.0	595882.0	0.286610	0.703025
     29366.55	0.13335	1911495.0	1435106.0	710412.0	0.286647	0.703149
     29367.05	0.12568	1761632.0	1322906.0	654708.0	0.286410	0.703397
     29367.54	0.11098	1551203.0	1164836.0	576437.0	0.286450	0.703470
     29368.04	0.13591	1941392.0	1458261.0	721619.0	0.286161	0.703503
     29368.53	0.14009	1989885.0	1494403.0	740029.0	0.286350	0.702793
     29369.03	0.11987	1701630.0	1277782.0	632529.0	0.286461	0.703155
     29369.53	0.13257	1913787.0	1437548.0	711586.0	0.286145	0.703198
     29370.02	0.13424	1877246.0	1410287.0	698462.0	0.286013	0.702668
     29370.52	0.12239	1747788.0	1312875.0	650217.0	0.286132	0.702669
     29371.01	0.13357	1915657.0	1439590.0	713095.0	0.285702	0.702499
     29371.51	0.12780	1808257.0	1358290.0	673152.0	0.286137	0.702011
     29372.01	0.13102	1894348.0	1422958.0	705202.0	0.286137	0.702009
     29372.50	0.12790	1843817.0	1385405.0	686555.0	0.285845	0.702061
     29373.00	0.12806	1833379.0	1377456.0	682857.0	0.285922	0.701708
     29373.49	0.12379	1755667.0	1319496.0	654342.0	0.285599	0.701375
     29373.99	0.12777	1779776.0	1337343.0	663388.0	0.285803	0.701080
     29374.49	0.11740	1682998.0	1264676.0	627193.0	0.285761	0.701317
     29374.98	0.12564	1771517.0	1331385.0	660962.0	0.285616	0.700279
     29375.48	0.12702	1793878.0	1348394.0	669363.0	0.285466	0.700343
     29375.98	0.11351	1609085.0	1209449.0	600772.0	0.285501	0.699705
     29376.47	0.11939	1659125.0	1247117.0	619185.0	0.285456	0.700186
     29376.97	0.12460	1753565.0	1318231.0	655101.0	0.285360	0.699257
     29377.46	0.12140	1712430.0	1287210.0	639988.0	0.285436	0.698783
     29377.96	0.11361	1618138.0	1216300.0	605022.0	0.285463	0.698304
     29378.46	0.12681	1780210.0	1338115.0	665881.0	0.285469	0.697906
     29378.95	0.11997	1679489.0	1262723.0	628722.0	0.285219	0.697337
     29379.45	0.10816	1512477.0	1137250.0	566344.0	0.285136	0.697167
     29379.95	0.098514	1398506.0	1051237.0	523666.0	0.285437	0.696869
     29380.44	0.14279	2019369.0	1518223.0	756842.0	0.285245	0.696141
     29380.94	0.12038	1689145.0	1269425.0	633075.0	0.285658	0.695730
     29381.44	0.12519	1741090.0	1308746.0	652896.0	0.285442	0.695407
     29381.93	0.13209	1826219.0	1373098.0	685368.0	0.285178	0.694869
     29382.43	0.10741	1498704.0	1127072.0	562772.0	0.284978	0.694504
     29382.93	0.15033	2127470.0	1599474.0	799078.0	0.285259	0.693972
     29383.42	0.13445	1883637.0	1416365.0	707751.0	0.285111	0.693757
     29383.92	0.12212	1732040.0	1302304.0	651180.0	0.285165	0.693104
     29384.41	0.12567	1770465.0	1331436.0	666111.0	0.284984	0.692557
     29384.91	0.12704	1794298.0	1349130.0	675110.0	0.285154	0.692340
     29385.41	0.13174	1872442.0	1408008.0	705232.0	0.285068	0.691404
     29385.90	0.12560	1778450.0	1336994.0	669971.0	0.285318	0.690945
     29386.40	0.12404	1714796.0	1289405.0	646451.0	0.285113	0.690439
     29386.90	0.12858	1811761.0	1362340.0	683279.0	0.285095	0.690056
     29387.39	0.13352	1883611.0	1416459.0	710817.0	0.285031	0.689500
     29387.89	0.12367	1699776.0	1278535.0	642109.0	0.284782	0.688712
     29388.39	0.13080	1826841.0	1373985.0	689948.0	0.284873	0.688854
     29388.88	0.12769	1825601.0	1372892.0	689846.0	0.284990	0.688206
     29389.38	0.14455	2022714.0	1521557.0	764861.0	0.284706	0.687795
     29389.88	0.12915	1804388.0	1357156.0	682399.0	0.284830	0.687532
     29390.37	0.13632	1922068.0	1445217.0	727300.0	0.285142	0.686676
     29390.87	0.13029	1841544.0	1384910.0	697023.0	0.284969	0.686572
     29391.37	0.13596	1904165.0	1432187.0	721325.0	0.284841	0.685868
     29391.87	0.12163	1723255.0	1296048.0	652898.0	0.284895	0.685654
     29392.36	0.12647	1797582.0	1352199.0	681464.0	0.284710	0.685244
     29392.86	0.12494	1731519.0	1302283.0	656379.0	0.284880	0.685136
     29393.36	0.13004	1791674.0	1348311.0	680194.0	0.284298	0.684230
     29393.85	0.13078	1827645.0	1374790.0	693766.0	0.284727	0.683922
     29394.35	0.11949	1692751.0	1273291.0	642753.0	0.284750	0.683600
     29394.85	0.12618	1773019.0	1333678.0	673436.0	0.284743	0.683303
     29395.34	0.11548	1587461.0	1194305.0	603438.0	0.284571	0.682676
     29395.84	0.12980	1835454.0	1381010.0	697620.0	0.284477	0.682896
     29396.34	0.13449	1890942.0	1422885.0	719401.0	0.284389	0.682023
     29396.83	0.12911	1793610.0	1349455.0	682160.0	0.284530	0.682192
     29397.33	0.12310	1722203.0	1295722.0	655429.0	0.284536	0.681533
     29397.83	0.11388	1609507.0	1210931.0	612570.0	0.284538	0.681482
     29398.33	0.12723	1756536.0	1321661.0	668723.0	0.284454	0.681275
     29398.82	0.11883	1664472.0	1252768.0	634121.0	0.284152	0.680871
     29399.32	0.13034	1847328.0	1389898.0	703664.0	0.284510	0.680685
     29399.82	0.11017	1572111.0	1182792.0	598889.0	0.284542	0.680557
     29400.31	0.12335	1709280.0	1286037.0	651328.0	0.284507	0.680307
     29400.81	0.11368	1592832.0	1198657.0	606970.0	0.284312	0.680478
     29401.31	0.11915	1693415.0	1274217.0	645501.0	0.284415	0.680060
     29401.80	0.12431	1719645.0	1294160.0	655626.0	0.284256	0.680027
     29402.30	0.12567	1759320.0	1323872.0	670626.0	0.284367	0.680104
     29402.80	0.13473	1890995.0	1423192.0	721292.0	0.284201	0.679613
     29403.30	0.12868	1804022.0	1357712.0	688190.0	0.284218	0.679491
     29403.79	0.12853	1793169.0	1349842.0	684804.0	0.283997	0.678610
     29404.29	0.11910	1661008.0	1250153.0	633632.0	0.284159	0.679553
     29404.79	0.14377	2022693.0	1522497.0	771834.0	0.284078	0.679338
     29405.29	0.12028	1681490.0	1265746.0	641998.0	0.284019	0.678832
     29405.78	0.12384	1734422.0	1305487.0	661686.0	0.284098	0.679540
     29406.28	0.12553	1771837.0	1333539.0	676378.0	0.284181	0.678839
     29406.78	0.12595	1802068.0	1356105.0	687477.0	0.284318	0.679344
     29407.27	0.12462	1745650.0	1313826.0	666291.0	0.284183	0.678972
     29407.77	0.13445	1893902.0	1425639.0	722936.0	0.284019	0.679055
     29408.27	0.11786	1645025.0	1238638.0	628016.0	0.283743	0.679202
     29408.77	0.12652	1769085.0	1331567.0	675406.0	0.284106	0.678798
     29409.26	0.12905	1795496.0	1352037.0	685573.0	0.283669	0.679113
     29409.76	0.13353	1892392.0	1425115.0	722341.0	0.283589	0.679510
     29410.26	0.12876	1829166.0	1377255.0	698309.0	0.283768	0.679186
     29410.76	0.12702	1773386.0	1335636.0	677026.0	0.283483	0.679453
     29411.25	0.13676	1932775.0	1455027.0	737609.0	0.283932	0.679366
     29411.75	0.12363	1724534.0	1298529.0	658503.0	0.283725	0.679018
     29412.25	0.13035	1828693.0	1377741.0	698128.0	0.283156	0.679798
     29412.75	0.12562	1762375.0	1327144.0	672581.0	0.283633	0.679662
     29413.24	0.12615	1757747.0	1323695.0	670828.0	0.283606	0.679670
     29413.74	0.12795	1790978.0	1348704.0	683506.0	0.283618	0.679664
     29414.24	0.12358	1742747.0	1312503.0	664745.0	0.283527	0.680288
     29414.74	0.12860	1815492.0	1367156.0	692838.0	0.283624	0.679692
     29415.23	0.12059	1664946.0	1254055.0	635188.0	0.283410	0.680217
     29415.73	0.13990	1995384.0	1503227.0	761313.0	0.283222	0.680325
     29416.23	0.11485	1621922.0	1221463.0	618663.0	0.283563	0.680244
     29416.73	0.11713	1638664.0	1234424.0	624928.0	0.283277	0.680723
     29417.22	0.12541	1736190.0	1308095.0	662118.0	0.283121	0.680883
     29417.72	0.11948	1658248.0	1249473.0	632566.0	0.283040	0.680693
     29418.22	0.12405	1726332.0	1300693.0	658843.0	0.283102	0.680167
     29418.72	0.10970	1533067.0	1154878.0	584568.0	0.283276	0.680877
     29419.22	0.10911	1537592.0	1158627.0	586510.0	0.282982	0.680801
     29419.71	0.12852	1798361.0	1354840.0	685659.0	0.283192	0.681058
     29420.21	0.10492	1460269.0	1100580.0	556772.0	0.282783	0.681437
     29420.71	0.12420	1713523.0	1291460.0	653459.0	0.282778	0.681249
     29421.21	0.12218	1711153.0	1289649.0	652529.0	0.282797	0.681270
     29421.70	0.11884	1640800.0	1236373.0	625396.0	0.283002	0.681552
     29422.20	0.12662	1760749.0	1326632.0	671114.0	0.283096	0.681460
     29422.70	0.11659	1654527.0	1247134.0	630445.0	0.282667	0.682177
     29423.20	0.14186	1974676.0	1488315.0	752615.0	0.282760	0.681846
     29423.70	0.13733	1927660.0	1452977.0	734944.0	0.282692	0.681576
     29424.19	0.11395	1599384.0	1205321.0	609458.0	0.282873	0.681931
     29424.69	0.13226	1842159.0	1388747.0	702130.0	0.282536	0.682039
     29425.19	0.13577	1907063.0	1437868.0	726952.0	0.282403	0.682056
     29425.69	0.12536	1791758.0	1350501.0	682705.0	0.282722	0.682168
     29426.19	0.12584	1754993.0	1323233.0	669216.0	0.282387	0.681726
     29426.68	0.13353	1876462.0	1415021.0	715447.0	0.282244	0.681992
     29427.18	0.11748	1663227.0	1253455.0	633865.0	0.282856	0.681823
     29427.68	0.14113	2017252.0	1520634.0	768925.0	0.282609	0.681889
     29428.18	0.11967	1662620.0	1253755.0	634039.0	0.282252	0.681788
     29428.68	0.12320	1715885.0	1293525.0	654248.0	0.282558	0.681640
     29429.17	0.13748	1902179.0	1434021.0	725230.0	0.282518	0.681749
     29429.67	0.12837	1808001.0	1362918.0	689733.0	0.282594	0.681079
     29430.17	0.13386	1859525.0	1401950.0	709189.0	0.282457	0.681497
     29430.67	0.13601	1911799.0	1441384.0	729239.0	0.282441	0.681358
     29431.17	0.12946	1817780.0	1371036.0	693846.0	0.282049	0.681072
     29431.66	0.13759	1927153.0	1453376.0	735520.0	0.282155	0.681067
     29432.16	0.13381	1879389.0	1417247.0	717325.0	0.282230	0.680943
     29432.66	0.12154	1694793.0	1278212.0	647099.0	0.282098	0.680718
     29433.16	0.12408	1726363.0	1302077.0	659270.0	0.282056	0.680583
     29433.66	0.12116	1695397.0	1278637.0	647556.0	0.282122	0.680345
     29434.16	0.13162	1844172.0	1390281.0	704018.0	0.282525	0.680457
     29434.65	0.11727	1663937.0	1254936.0	635724.0	0.282102	0.680075
     29435.15	0.12376	1738536.0	1311194.0	664399.0	0.282105	0.679811
     29435.65	0.12927	1822185.0	1374558.0	696527.0	0.281904	0.679781
     29436.15	0.12303	1730083.0	1305153.0	661683.0	0.281849	0.679289
     29436.65	0.13331	1854396.0	1398709.0	709172.0	0.282009	0.679207
     29437.15	0.11372	1585559.0	1195972.0	606530.0	0.281978	0.678960
     29437.64	0.12249	1713406.0	1292447.0	655919.0	0.281946	0.678255
     29438.14	0.13732	1919330.0	1448054.0	734813.0	0.281756	0.678360
     29438.64	0.11199	1557565.0	1174914.0	596197.0	0.281929	0.678379
     29439.14	0.11996	1633725.0	1232689.0	625972.0	0.281665	0.677648
     29439.64	0.11993	1660213.0	1252495.0	636166.0	0.281808	0.677433
     29440.14	0.12925	1802180.0	1359553.0	690689.0	0.281841	0.677222
     29440.63	0.10511	1480186.0	1116578.0	567168.0	0.281899	0.677368
     29441.13	0.13370	1890924.0	1426823.0	725259.0	0.281615	0.676677
     29441.63	0.11047	1573674.0	1187573.0	603663.0	0.281501	0.676651
     29442.13	0.14075	1943064.0	1466270.0	745662.0	0.281544	0.676205
     29442.63	0.12226	1700318.0	1283115.0	652542.0	0.281525	0.676170
     29443.13	0.13066	1803855.0	1361471.0	692973.0	0.281360	0.675330
     29443.63	0.13218	1847334.0	1394090.0	709528.0	0.281502	0.675397
     29444.12	0.10939	1539664.0	1162074.0	591655.0	0.281358	0.675038
     29444.62	0.13721	1904244.0	1436795.0	732149.0	0.281670	0.674186
     29445.12	0.13050	1830144.0	1380919.0	703872.0	0.281645	0.673908
     29445.62	0.12568	1749427.0	1320811.0	673450.0	0.281042	0.673587
     29446.12	0.12440	1740775.0	1313773.0	670146.0	0.281427	0.673163
     29446.62	0.12458	1733546.0	1308587.0	667668.0	0.281221	0.672912
     29447.12	0.13077	1836616.0	1386426.0	707425.0	0.281196	0.672853
     29447.62	0.11717	1635322.0	1234206.0	630064.0	0.281412	0.672362
     29448.11	0.11567	1629080.0	1229324.0	627759.0	0.281551	0.672063
     29448.61	0.13492	1914015.0	1445095.0	738296.0	0.281028	0.671586
     29449.11	0.12810	1809423.0	1365806.0	698264.0	0.281263	0.670903
     29449.61	0.14040	1979352.0	1494300.0	764196.0	0.281112	0.670589
     29450.11	0.12365	1734598.0	1309636.0	669955.0	0.281026	0.670294
     29450.61	0.12537	1796337.0	1356479.0	694269.0	0.280857	0.669788
     29451.11	0.13258	1870512.0	1412285.0	723183.0	0.281003	0.669302
     29451.61	0.12146	1698599.0	1282772.0	656668.0	0.280780	0.669600
     29452.10	0.13298	1860469.0	1404854.0	719819.0	0.280895	0.668689
     29452.60	0.12940	1818393.0	1372824.0	703677.0	0.281083	0.668306
     29453.10	0.12910	1807629.0	1364962.0	700160.0	0.280889	0.667573
     29453.60	0.12272	1691730.0	1277531.0	655565.0	0.280822	0.667187
     29454.10	0.12830	1799071.0	1358708.0	697434.0	0.280736	0.666882
     29454.60	0.12630	1782871.0	1346218.0	691243.0	0.280926	0.666563
     29455.10	0.14542	2051771.0	1549536.0	796025.0	0.280748	0.666080
     29455.60	0.10292	1408354.0	1063597.0	546556.0	0.280765	0.665775
     29456.10	0.12062	1680718.0	1269336.0	652508.0	0.280727	0.665426
     29456.59	0.12674	1771386.0	1337755.0	687974.0	0.280769	0.664997
     29457.09	0.11722	1610131.0	1216502.0	625536.0	0.280336	0.665126
     29457.59	0.12600	1762330.0	1331060.0	684905.0	0.280661	0.664451
     29458.09	0.11839	1639220.0	1238543.0	637763.0	0.280285	0.663724
     29458.59	0.12115	1690809.0	1277303.0	657653.0	0.280456	0.663829
     29459.09	0.12584	1745821.0	1318755.0	679351.0	0.280537	0.663305
     29459.59	0.10263	1415670.0	1069092.0	551380.0	0.280793	0.662141
     29460.09	0.11059	1515357.0	1145010.0	590471.0	0.280238	0.662248
     29460.59	0.12331	1687554.0	1274944.0	657235.0	0.280378	0.662616
     29461.09	0.11235	1555136.0	1175254.0	606065.0	0.280079	0.662252
     29461.59	0.13151	1816448.0	1372774.0	708238.0	0.280049	0.661809
     29462.09	0.12286	1714891.0	1295962.0	668783.0	0.280096	0.661549
     29462.58	0.13098	1819570.0	1375501.0	710319.0	0.279782	0.660859
     29463.08	0.14621	2046604.0	1546655.0	798840.0	0.280087	0.660689
     29463.58	0.12196	1689827.0	1277473.0	659894.0	0.279742	0.660560
     29464.08	0.11009	1561054.0	1179972.0	609996.0	0.279871	0.659794
     29464.58	0.13692	1924121.0	1454285.0	751894.0	0.279955	0.659674
     29465.08	0.12948	1831320.0	1384369.0	715726.0	0.279793	0.659702
     29465.58	0.13369	1854587.0	1401921.0	725252.0	0.279819	0.659080
     29466.08	0.13205	1814979.0	1372246.0	710252.0	0.279625	0.658584
     29466.58	0.14195	1977041.0	1494689.0	773764.0	0.279683	0.658407
     29467.08	0.16479	2315769.0	1751083.0	906611.0	0.279507	0.658276
     29467.58	0.092011	1302883.0	985031.0	510159.0	0.279662	0.657951
     29468.08	0.13022	1793204.0	1356219.0	702269.0	0.279303	0.658139
     29468.58	0.099202	1372058.0	1037604.0	537519.0	0.279398	0.657705
     29469.08	0.14496	1995175.0	1509008.0	782003.0	0.279279	0.657349
     29469.58	0.13162	1813026.0	1371481.0	711045.0	0.279106	0.656911
     29470.07	0.13457	1869805.0	1413996.0	733292.0	0.279414	0.656631
     29470.57	0.14367	1990388.0	1505620.0	781002.0	0.279125	0.656382
     29471.07	0.14273	1973789.0	1493054.0	774499.0	0.279131	0.656363
     29471.57	0.11311	1565323.0	1184599.0	614536.0	0.278688	0.656292
     29472.07	0.11966	1663638.0	1258815.0	653007.0	0.278836	0.656338
     29472.57	0.12500	1743797.0	1319388.0	684561.0	0.278897	0.656146
     29473.07	0.13631	1893484.0	1432776.0	743806.0	0.278805	0.655589
     29473.57	0.12282	1721987.0	1303022.0	676396.0	0.278793	0.655663
     29474.07	0.12372	1727677.0	1307220.0	678470.0	0.278875	0.655818
     29474.57	0.12769	1761640.0	1333036.0	692208.0	0.278786	0.655328
     29475.07	0.13041	1821965.0	1378809.0	716069.0	0.278696	0.655199
     29475.57	0.11543	1605835.0	1215018.0	630994.0	0.278885	0.655218
     29476.07	0.12509	1729008.0	1308633.0	679934.0	0.278565	0.654743
     29476.57	0.12449	1688576.0	1278347.0	663932.0	0.278318	0.655143
     29477.07	0.12474	1742676.0	1319423.0	685221.0	0.278227	0.655208
     29477.57	0.12718	1757460.0	1330761.0	691238.0	0.278119	0.655022
     29478.07	0.11641	1612785.0	1220783.0	634254.0	0.278470	0.654798
     29478.57	0.12706	1766127.0	1337558.0	694960.0	0.277943	0.654747
     29479.07	0.11696	1633838.0	1236941.0	642846.0	0.278290	0.654491
     29479.57	0.12220	1691112.0	1280622.0	665515.0	0.278040	0.654540
     29480.07	0.11277	1556769.0	1178874.0	612447.0	0.278053	0.654853
     29480.57	0.12817	1746554.0	1323025.0	687493.0	0.277724	0.654624
     29481.07	0.12270	1711561.0	1296124.0	673457.0	0.278028	0.654709
     29481.57	0.11327	1564149.0	1184748.0	615515.0	0.277812	0.654826
     29482.07	0.13639	1908203.0	1445845.0	751027.0	0.277468	0.655008
     29482.57	0.14014	1957456.0	1482785.0	770438.0	0.277724	0.654718
     29483.07	0.10483	1445205.0	1094749.0	568948.0	0.277726	0.654491
     29483.57	0.13723	1875299.0	1420621.0	738323.0	0.277674	0.654468
     29484.07	0.13131	1816131.0	1375632.0	715052.0	0.277795	0.654313
     29484.57	0.13397	1857314.0	1406982.0	731403.0	0.277684	0.654238
     29485.07	0.12179	1697524.0	1286182.0	668310.0	0.277493	0.654681
     29485.57	0.11725	1629994.0	1235071.0	641686.0	0.277448	0.654785
     29486.07	0.12769	1797380.0	1362019.0	707746.0	0.277362	0.654638
     29486.57	0.13064	1824382.0	1382757.0	718814.0	0.277162	0.654232
     29487.07	0.11875	1634366.0	1238247.0	643378.0	0.277558	0.654720
     29487.57	0.12508	1713540.0	1298974.0	675227.0	0.276987	0.654281
     29488.07	0.12290	1682302.0	1274905.0	662697.0	0.277291	0.654309
     29488.57	0.12762	1773204.0	1343790.0	698507.0	0.277294	0.654304
     29489.07	0.13372	1888113.0	1431059.0	743329.0	0.277163	0.655031
     29489.57	0.14047	1952090.0	1479769.0	768763.0	0.277015	0.654859
     29490.07	0.13748	1924360.0	1458417.0	757808.0	0.277242	0.654677
     29490.57	0.12933	1775379.0	1346130.0	699610.0	0.276780	0.654466
     29491.07	0.10593	1475277.0	1118620.0	581197.0	0.276750	0.654761
     29491.57	0.13625	1898837.0	1439591.0	747922.0	0.276883	0.654816
     29492.07	0.12436	1739358.0	1318709.0	685070.0	0.276863	0.654887
     29492.57	0.12494	1747475.0	1325360.0	688425.0	0.276488	0.655033
     29493.07	0.13054	1828260.0	1386181.0	719834.0	0.276812	0.655287
     29493.57	0.12689	1758511.0	1333543.0	692859.0	0.276628	0.654768
     29494.07	0.12807	1742234.0	1321068.0	686428.0	0.276728	0.654694
     29494.57	0.12317	1689171.0	1281176.0	665557.0	0.276459	0.654909
     29495.07	0.12180	1691901.0	1283559.0	666836.0	0.276216	0.654848
     29495.57	0.12273	1692360.0	1283893.0	666911.0	0.276227	0.654996
     29496.07	0.12330	1686027.0	1278840.0	664133.0	0.276421	0.655226
     29496.57	0.12432	1678494.0	1273483.0	661714.0	0.276141	0.654678
     29497.07	0.11180	1536011.0	1165207.0	605025.0	0.276290	0.655384
     29497.57	0.14483	2005855.0	1521740.0	790396.0	0.276216	0.655076
     29498.07	0.11211	1534539.0	1163883.0	604690.0	0.276468	0.654801
     29498.57	0.10114	1384082.0	1050072.0	545822.0	0.276178	0.654321
     29499.07	0.11595	1593259.0	1208830.0	627929.0	0.276129	0.654981
     29499.57	0.10559	1454920.0	1104001.0	573231.0	0.276010	0.655407
     29500.07	0.12078	1682242.0	1276514.0	662925.0	0.275995	0.655226
     29500.58	0.12386	1753036.0	1329782.0	690907.0	0.276334	0.654765
     29501.08	0.13486	1915327.0	1452795.0	754807.0	0.276399	0.654782
     29501.58	0.12775	1798316.0	1364324.0	709077.0	0.276192	0.654450
     29502.08	0.12328	1714687.0	1301126.0	676402.0	0.276001	0.654198
     29502.58	0.13130	1808072.0	1372028.0	713076.0	0.275971	0.654457
     29503.08	0.12195	1715197.0	1301741.0	676568.0	0.275825	0.654425
     29503.58	0.13784	1918127.0	1455496.0	756497.0	0.276002	0.654403
     29504.08	0.13358	1877988.0	1424947.0	740828.0	0.276066	0.654121
     29504.58	0.12206	1719096.0	1304578.0	678352.0	0.275919	0.653969
     29505.08	0.13042	1780915.0	1351834.0	702659.0	0.275665	0.654346
     29505.58	0.16138	2240991.0	1700936.0	884480.0	0.275739	0.653934
     29506.08	0.13264	1875804.0	1423537.0	740197.0	0.275893	0.653984
     29506.58	0.094388	1329148.0	1008539.0	524396.0	0.276035	0.654011
     29507.08	0.13730	1921130.0	1458749.0	758847.0	0.275334	0.653534
     29507.58	0.11523	1619053.0	1229052.0	639545.0	0.275598	0.653241
     29508.09	0.13220	1857389.0	1410206.0	733750.0	0.275436	0.653323
     29508.59	0.16931	2368020.0	1797559.0	935146.0	0.275625	0.653482
     29509.09	0.14676	2075237.0	1575338.0	819797.0	0.275606	0.653168
     29509.59	0.19894	2841234.0	2157198.0	1122852.0	0.275428	0.652938
     29510.09	0.070705	991471.0	752776.0	391828.0	0.275422	0.652945
     29510.59	0.076921	1081732.0	821427.0	427648.0	0.275276	0.652743
     29511.09	0.13002	1834884.0	1393212.0	725424.0	0.275369	0.652611
     29511.59	0.13172	1864509.0	1415791.0	737310.0	0.275309	0.652435
     29512.09	0.12925	1822023.0	1383673.0	720761.0	0.275206	0.652189
     29512.59	0.12783	1810200.0	1374690.0	716121.0	0.275209	0.652134
     29513.09	0.12041	1738945.0	1319703.0	687803.0	0.275872	0.651660
     29513.60	0.12502	1782201.0	1353354.0	705415.0	0.275263	0.651555
     29514.10	0.12251	1739632.0	1320858.0	688467.0	0.275392	0.651569
     29514.60	0.12749	1799404.0	1366800.0	712346.0	0.274983	0.651664
     29515.10	0.12656	1838070.0	1395645.0	727689.0	0.275359	0.651238
     29515.60	0.12070	1708744.0	1297539.0	676987.0	0.275289	0.650573
     29516.10	0.13273	1903560.0	1445808.0	754010.0	0.275057	0.651018
     29516.60	0.11924	1697051.0	1288892.0	672331.0	0.275109	0.650787
     29517.10	0.12171	1723427.0	1309127.0	683560.0	0.274954	0.649801
     29517.60	0.12093	1717140.0	1304219.0	680831.0	0.275056	0.650046
     29518.10	0.11472	1611257.0	1223974.0	639058.0	0.274912	0.649863
     29518.61	0.12088	1726796.0	1311662.0	685112.0	0.274973	0.649468
     29519.11	0.12646	1789972.0	1359860.0	710200.0	0.274818	0.649590
     29519.61	0.11010	1568615.0	1191529.0	622521.0	0.274956	0.649215
     29520.11	0.12396	1765688.0	1341470.0	701168.0	0.274774	0.648774
     29520.61	0.12919	1849744.0	1404972.0	734511.0	0.275030	0.648568
     29521.11	0.13015	1853511.0	1407973.0	736179.0	0.274931	0.648433
     29521.61	0.13224	1887054.0	1433217.0	749538.0	0.275095	0.648220
     29522.11	0.12316	1764975.0	1340502.0	701426.0	0.275092	0.647684
     29522.62	0.13353	1928867.0	1465080.0	766674.0	0.275023	0.647603
     29523.12	0.12881	1887595.0	1433921.0	750407.0	0.274891	0.647552
     29523.62	0.13632	1931607.0	1467535.0	768536.0	0.274768	0.646852
     29524.12	0.12705	1806702.0	1372513.0	718958.0	0.274860	0.646596
     29524.62	0.12459	1782772.0	1354473.0	709636.0	0.274757	0.646416
     29525.12	0.12350	1752439.0	1331489.0	697659.0	0.274711	0.646323
     29525.62	0.11099	1580589.0	1201037.0	629575.0	0.274612	0.645896
     29526.12	0.12622	1790766.0	1360929.0	713545.0	0.274476	0.645677
     29526.63	0.12288	1737166.0	1320110.0	692486.0	0.274540	0.645182
     29527.13	0.13100	1873032.0	1423045.0	746331.0	0.274760	0.645385
     29527.63	0.12715	1828831.0	1389685.0	729554.0	0.274600	0.644399
     29528.13	0.13929	1992927.0	1514376.0	794986.0	0.274601	0.644434
     29528.63	0.12764	1819824.0	1382818.0	726479.0	0.274616	0.643669
     29529.13	0.12390	1782429.0	1354456.0	711556.0	0.274577	0.643701
     29529.64	0.12687	1813307.0	1378018.0	724218.0	0.274506	0.643309
     29530.14	0.13206	1876482.0	1426234.0	749471.0	0.274361	0.643425
     29530.64	0.12497	1782239.0	1354557.0	712049.0	0.274396	0.643083
     29531.14	0.12663	1821854.0	1384541.0	728162.0	0.274486	0.642600
     29531.64	0.12471	1789078.0	1359878.0	715508.0	0.274305	0.642157
     29532.14	0.13335	1906624.0	1449297.0	762489.0	0.274256	0.642246
     29532.64	0.12428	1791069.0	1361421.0	716489.0	0.274284	0.641921
     29533.15	0.11904	1727288.0	1312880.0	691389.0	0.274329	0.641276
     29533.65	0.12245	1711303.0	1301138.0	685510.0	0.274016	0.640831
     29534.15	0.13070	1833904.0	1394165.0	734118.0	0.274151	0.641381
     29534.65	0.11750	1688164.0	1283100.0	676400.0	0.274363	0.640250
     29535.15	0.11935	1713477.0	1302589.0	686646.0	0.274171	0.640290
     29535.65	0.12011	1707184.0	1297714.0	684444.0	0.274241	0.639753
     29536.16	0.11922	1714961.0	1303961.0	688077.0	0.273984	0.639261
     29536.66	0.11892	1712387.0	1301371.0	686446.0	0.274470	0.639646
     29537.16	0.11289	1616573.0	1229212.0	648820.0	0.273935	0.638973
     29537.66	0.10725	1553804.0	1181188.0	623530.0	0.274185	0.638879
     29538.16	0.11419	1637737.0	1245112.0	657840.0	0.274090	0.638019
     29538.67	0.12519	1792453.0	1363054.0	719813.0	0.273857	0.638492
     29539.17	0.11498	1627870.0	1238076.0	654279.0	0.273714	0.637780
     29539.67	0.13831	1985641.0	1509915.0	797708.0	0.273888	0.638066
     29540.17	0.12825	1784655.0	1357565.0	718138.0	0.273532	0.636786
     29540.67	0.10106	1448543.0	1101740.0	582400.0	0.273667	0.637489
     29541.17	0.14360	2044401.0	1555010.0	822856.0	0.273623	0.636456
     29541.68	0.14418	2029871.0	1543966.0	816835.0	0.273618	0.636673
     29542.18	0.12003	1724830.0	1311714.0	694355.0	0.273794	0.636107
     29542.68	0.12029	1726640.0	1313004.0	694754.0	0.273860	0.636515
     29543.18	0.13780	1943720.0	1479076.0	783282.0	0.273186	0.635680
     29543.68	0.13161	1869753.0	1422000.0	752983.0	0.273742	0.635777
     29544.19	0.14718	2086099.0	1587442.0	840901.0	0.273172	0.635405
     29544.69	0.11197	1574118.0	1197356.0	634384.0	0.273579	0.635217
     29545.19	0.12315	1725017.0	1312483.0	695597.0	0.273316	0.634906
     29545.69	0.11771	1700662.0	1293781.0	685597.0	0.273449	0.635034
     29546.19	0.14515	2082353.0	1584168.0	839740.0	0.273439	0.634722
     29546.70	0.13370	1910231.0	1453637.0	770336.0	0.273155	0.634997
     29547.20	0.13267	1901489.0	1447151.0	767737.0	0.273040	0.633905
     29547.70	0.15211	2154062.0	1639646.0	869818.0	0.272875	0.633952
     29548.20	0.12652	1800229.0	1369857.0	726838.0	0.273208	0.633758
     29548.71	0.12227	1738870.0	1323419.0	702254.0	0.273017	0.633679
     29549.21	0.11592	1612986.0	1227468.0	651399.0	0.273134	0.633586
     29549.71	0.13562	1948969.0	1483252.0	787360.0	0.273064	0.633307
     29550.21	0.12685	1780964.0	1355605.0	719950.0	0.272907	0.632821
     29550.71	0.13141	1831781.0	1394504.0	740964.0	0.272750	0.632342
     29551.22	0.12293	1750632.0	1332435.0	707904.0	0.272969	0.632455
     29551.72	0.13510	1906028.0	1450899.0	770812.0	0.272838	0.632494
     29552.22	0.11202	1587458.0	1208560.0	642270.0	0.272704	0.632176
     29552.72	0.12493	1735860.0	1321587.0	702343.0	0.272670	0.632167
     29553.23	0.12983	1805142.0	1374122.0	730161.0	0.272824	0.632305
     29553.73	0.12148	1727894.0	1315281.0	699279.0	0.272853	0.631756
     29554.23	0.12886	1844684.0	1404443.0	746745.0	0.272667	0.631672
     29554.73	0.13088	1866508.0	1420956.0	755533.0	0.272739	0.631662
     29555.24	0.11484	1604037.0	1221621.0	649731.0	0.272345	0.631376
     29555.74	0.13438	1885069.0	1435033.0	763615.0	0.272777	0.630879
     29556.24	0.11348	1593507.0	1213314.0	645693.0	0.272582	0.630787
     29556.74	0.11302	1574592.0	1199328.0	638107.0	0.272235	0.631011
     29557.24	0.12754	1799196.0	1370455.0	729257.0	0.272197	0.630872
     29557.75	0.12097	1735536.0	1321485.0	703528.0	0.272560	0.630404
     29558.25	0.12087	1707120.0	1300209.0	692303.0	0.272283	0.630257
     29558.75	0.13117	1862998.0	1419209.0	755643.0	0.272087	0.630286
     29559.26	0.11929	1681117.0	1280768.0	681863.0	0.271999	0.630386
     29559.76	0.13283	1858937.0	1415928.0	754019.0	0.272220	0.630123
     29560.26	0.10613	1480437.0	1127845.0	600749.0	0.272029	0.629887
     29560.76	0.13364	1888286.0	1438446.0	766102.0	0.272106	0.630003
     29561.27	0.14037	1987563.0	1514075.0	806701.0	0.272105	0.629607
     29561.77	0.12592	1777150.0	1353692.0	721368.0	0.272175	0.629442
     29562.27	0.12427	1749208.0	1332847.0	710064.0	0.271846	0.629717
     29562.77	0.12208	1702674.0	1297338.0	691438.0	0.271885	0.629296
     29563.28	0.18523	2577642.0	1963974.0	1046607.0	0.271905	0.629416
     29563.78	0.10312	1445176.0	1101265.0	586845.0	0.271772	0.629454
     29564.28	0.092257	1304246.0	994056.0	529691.0	0.271587	0.629500
     29564.78	0.12635	1802432.0	1373379.0	731864.0	0.271863	0.629435
     29565.29	0.11839	1682849.0	1282211.0	683373.0	0.271902	0.629300
     29565.79	0.12817	1820859.0	1387732.0	739655.0	0.271638	0.629242
     29566.29	0.12951	1821938.0	1388313.0	739749.0	0.271811	0.629534
     29566.80	0.13250	1884571.0	1436441.0	765639.0	0.271532	0.629213
     29567.30	0.18883	2694756.0	2053820.0	1094576.0	0.271606	0.629334
     29567.80	0.077500	1099268.0	837580.0	446530.0	0.271883	0.629010
     29568.30	0.11458	1623600.0	1237612.0	659760.0	0.271462	0.629063
     29568.81	0.13025	1847216.0	1407986.0	750705.0	0.271519	0.628903
     29569.31	0.12501	1753630.0	1336584.0	712716.0	0.271571	0.628789
     29569.81	0.13706	1909647.0	1455558.0	776000.0	0.271529	0.628992
     29570.32	0.12502	1750410.0	1334211.0	711401.0	0.271510	0.628859
     29570.82	0.13413	1857011.0	1415919.0	754994.0	0.271189	0.628824
     29571.32	0.13124	1855094.0	1414280.0	754500.0	0.271315	0.628321
     29571.82	0.12715	1797309.0	1370205.0	730647.0	0.271330	0.628785
     29572.33	0.11030	1543595.0	1176769.0	627787.0	0.271342	0.628327
     29572.83	0.11953	1687396.0	1286528.0	686201.0	0.271239	0.628532
     29573.33	0.11976	1692786.0	1290558.0	688580.0	0.271301	0.628198
     29573.84	0.12924	1846941.0	1408454.0	751033.0	0.271038	0.628798
     29574.34	0.11667	1648198.0	1256949.0	670572.0	0.270995	0.628312
     29574.84	0.12841	1817638.0	1386600.0	739807.0	0.270683	0.628221
     29575.35	0.12983	1848444.0	1409711.0	752060.0	0.270959	0.628324
     29575.85	0.10877	1554285.0	1185338.0	632318.0	0.270988	0.628391
     29576.35	0.11594	1641731.0	1251922.0	668041.0	0.271071	0.628086
     29576.85	0.11513	1634270.0	1246640.0	665058.0	0.270744	0.628333
     29577.36	0.11134	1580527.0	1205548.0	643142.0	0.270824	0.628324
     29577.86	0.11244	1604066.0	1223747.0	652994.0	0.270624	0.628105
     29578.36	0.13248	1857872.0	1417402.0	756573.0	0.270606	0.627782
     29578.87	0.13004	1844131.0	1406648.0	750529.0	0.270799	0.628187
     29579.37	0.12170	1724026.0	1314945.0	701781.0	0.270867	0.627929
     29579.87	0.14427	2039764.0	1556316.0	830861.0	0.270513	0.627614
     29580.38	0.095630	1339676.0	1022193.0	545914.0	0.270477	0.627244
     29580.88	0.13567	1932742.0	1474516.0	787402.0	0.270610	0.627346
     29581.38	0.11461	1629845.0	1243604.0	664091.0	0.270471	0.627350
     29581.89	0.14055	1979536.0	1510526.0	806732.0	0.270405	0.627222
     29582.39	0.13743	1923795.0	1468023.0	783943.0	0.270383	0.627336
     29582.89	0.12077	1702934.0	1299740.0	694105.0	0.270188	0.627296
     29583.40	0.14049	1982084.0	1512588.0	808049.0	0.270327	0.626955
     29583.90	0.12679	1781679.0	1359707.0	726300.0	0.270287	0.627061
     29584.40	0.12512	1752810.0	1337888.0	714687.0	0.270128	0.627003
     29584.91	0.11876	1687458.0	1287762.0	687833.0	0.270317	0.627115
     29585.41	0.12700	1802761.0	1376034.0	735156.0	0.270114	0.626878
     29585.91	0.12952	1822822.0	1391348.0	743503.0	0.270113	0.626656
     29586.42	0.13591	1876254.0	1432278.0	765314.0	0.270011	0.626735
     29586.92	0.14212	2003283.0	1529250.0	816926.0	0.270010	0.626984
     29587.42	0.13283	1860739.0	1420873.0	759448.0	0.269702	0.626435
     29587.93	0.14021	1974387.0	1507233.0	805847.0	0.269982	0.626137
     29588.43	0.12872	1813774.0	1384923.0	740153.0	0.269765	0.626543
     29588.93	0.12093	1695425.0	1294697.0	691931.0	0.269657	0.626546
     29589.44	0.12763	1782133.0	1360666.0	727372.0	0.269837	0.626292
     29589.94	0.13357	1863698.0	1423308.0	760867.0	0.269579	0.626280
     29590.45	0.13290	1867202.0	1425631.0	762103.0	0.269827	0.626288
     29590.95	0.14325	1976555.0	1509346.0	807012.0	0.269679	0.626093
     29591.45	0.11688	1634115.0	1248015.0	667361.0	0.269547	0.625978
     29591.96	0.11480	1604651.0	1225376.0	655862.0	0.269659	0.625053
     29592.46	0.11646	1630507.0	1245121.0	666202.0	0.269658	0.625395
     29592.96	0.12120	1690498.0	1290880.0	690748.0	0.269699	0.625304
     29593.47	0.13281	1838421.0	1404408.0	751393.0	0.269291	0.625442
     29593.97	0.12663	1744588.0	1332671.0	713146.0	0.269333	0.625254
     29594.48	0.12662	1763443.0	1347076.0	720952.0	0.269332	0.625119
     29594.98	0.13284	1838412.0	1404276.0	751592.0	0.269380	0.625084
     29595.48	0.11553	1604538.0	1225544.0	656105.0	0.269451	0.624819
     29595.99	0.11388	1592796.0	1216852.0	651495.0	0.269224	0.624753
     29596.49	0.12310	1741517.0	1330705.0	712241.0	0.269048	0.625048
     29596.99	0.11758	1660275.0	1268498.0	679267.0	0.269150	0.624575
     29597.50	0.12478	1739962.0	1329142.0	711985.0	0.269330	0.624232
     29598.00	0.12143	1687991.0	1289916.0	690887.0	0.268962	0.624356
     29598.51	0.12453	1734232.0	1324933.0	709702.0	0.269203	0.624272
     29599.01	0.11587	1625107.0	1241777.0	665527.0	0.269030	0.623719
     29599.51	0.12790	1793894.0	1370944.0	734459.0	0.268889	0.624121
     29600.02	0.12324	1735559.0	1326069.0	710344.0	0.269111	0.624225
     29600.52	0.13210	1872663.0	1430706.0	767150.0	0.269193	0.623241
     29601.03	0.13034	1800178.0	1375614.0	737494.0	0.268985	0.623398
     29601.53	0.12058	1673279.0	1279149.0	686087.0	0.268590	0.622946
     29602.03	0.13193	1832887.0	1401209.0	751343.0	0.268557	0.623228
     29602.54	0.14069	1951601.0	1491669.0	800374.0	0.268754	0.622572
     29603.04	0.11724	1647323.0	1258867.0	675465.0	0.268939	0.622566
     29603.55	0.11952	1679631.0	1284344.0	689270.0	0.268326	0.622370
     29604.05	0.13359	1856337.0	1419087.0	761688.0	0.268591	0.622232
     29604.55	0.11112	1549232.0	1184265.0	635726.0	0.268637	0.622110
     29605.06	0.12858	1777344.0	1358813.0	729397.0	0.268509	0.622149
     29605.56	0.12947	1810898.0	1384019.0	743240.0	0.268831	0.621728
     29606.07	0.13226	1865839.0	1426798.0	766008.0	0.268278	0.621995
     29606.57	0.11751	1648977.0	1260925.0	677256.0	0.268310	0.621552
     29607.07	0.13547	1919479.0	1467531.0	788341.0	0.268472	0.621406
     29607.58	0.12592	1773226.0	1356057.0	728349.0	0.268219	0.621556
     29608.08	0.12681	1762087.0	1347623.0	724480.0	0.268157	0.620643
     29608.59	0.13329	1862087.0	1424135.0	765610.0	0.268133	0.620647
     29609.09	0.12488	1764125.0	1349123.0	725127.0	0.268200	0.620863
     29609.60	0.12965	1831914.0	1400744.0	753070.0	0.268358	0.620601
     29610.10	0.12319	1686412.0	1289570.0	693718.0	0.268294	0.619999
     29610.60	0.14046	1978148.0	1512803.0	813461.0	0.268197	0.620422
     29611.11	0.12378	1734658.0	1326719.0	713615.0	0.268101	0.620121
     29611.61	0.12234	1714138.0	1310965.0	705065.0	0.268147	0.620229
     29612.12	0.12895	1804958.0	1380357.0	743062.0	0.268195	0.619318
     29612.62	0.12080	1707412.0	1305896.0	702875.0	0.268089	0.619466
     29613.13	0.12632	1754676.0	1342675.0	722729.0	0.267620	0.619385
     29613.63	0.12443	1751191.0	1339462.0	721262.0	0.268028	0.619021
     29614.13	0.11989	1696615.0	1297990.0	699102.0	0.267818	0.618776
     29614.64	0.12996	1821983.0	1393836.0	750802.0	0.267866	0.618673
     29615.14	0.11519	1592038.0	1218085.0	656511.0	0.267735	0.618096
     29615.65	0.11172	1564551.0	1197205.0	645291.0	0.267609	0.618044
     29616.15	0.11861	1666069.0	1274614.0	687009.0	0.267824	0.618051
     29616.66	0.11091	1537546.0	1176452.0	634406.0	0.267685	0.617569
     29617.16	0.12870	1824726.0	1396110.0	752721.0	0.267740	0.617750
     29617.67	0.11734	1660797.0	1271262.0	685383.0	0.267287	0.617788
     29618.17	0.11294	1573451.0	1204023.0	649535.0	0.267603	0.617167
     29618.68	0.11669	1620013.0	1239805.0	668912.0	0.267480	0.617057
     29619.18	0.11783	1651165.0	1263670.0	681886.0	0.267461	0.616913
     29619.68	0.11721	1620640.0	1240124.0	669572.0	0.267610	0.616328
     29620.19	0.12703	1769202.0	1354249.0	731303.0	0.267282	0.616174
     29620.69	0.12028	1681416.0	1286859.0	694963.0	0.267432	0.616101
     29621.20	0.14148	1980758.0	1516044.0	819004.0	0.267375	0.615771
     29621.70	0.12820	1790385.0	1370171.0	740464.0	0.267495	0.615414
     29622.21	0.14022	1951072.0	1493696.0	807346.0	0.267125	0.615257
     29622.71	0.13133	1842435.0	1410673.0	762253.0	0.267021	0.615544
     29623.22	0.12240	1719416.0	1315983.0	711198.0	0.267401	0.615388
     29623.72	0.12221	1705073.0	1305602.0	705896.0	0.266944	0.614952
     29624.23	0.14420	2012061.0	1540289.0	833102.0	0.267190	0.614569
     29624.73	0.11533	1599357.0	1224501.0	662406.0	0.267068	0.614410
     29625.24	0.12343	1731857.0	1326289.0	717441.0	0.266809	0.614449
     29625.74	0.14396	1976499.0	1513420.0	819292.0	0.266955	0.613687
     29626.25	0.12083	1688588.0	1293189.0	699894.0	0.266781	0.613938
     29626.75	0.13471	1880279.0	1439845.0	779665.0	0.266885	0.613426
     29627.26	0.13801	1908059.0	1461400.0	791605.0	0.266692	0.613088
     29627.76	0.13622	1911560.0	1463658.0	792805.0	0.266981	0.613117
     29628.27	0.11916	1664183.0	1274401.0	690810.0	0.266858	0.612367
     29628.77	0.12181	1697792.0	1300213.0	704485.0	0.266800	0.612816
     29629.28	0.14399	2003828.0	1534982.0	831716.0	0.266541	0.612783
     29629.78	0.12973	1777048.0	1361258.0	737897.0	0.266544	0.612360
     29630.28	0.13182	1835482.0	1405570.0	762180.0	0.266864	0.612015
     29630.79	0.12184	1676839.0	1284501.0	697045.0	0.266540	0.611276
     29631.29	0.12451	1726076.0	1322652.0	717294.0	0.266212	0.611908
     29631.80	0.13369	1857012.0	1422755.0	772019.0	0.266374	0.611341
     29632.31	0.12226	1689131.0	1294039.0	702387.0	0.266446	0.611039
     29632.81	0.12084	1657322.0	1269590.0	689392.0	0.266509	0.610639
     29633.32	0.13052	1797909.0	1376859.0	747573.0	0.266820	0.610728
     29633.82	0.11817	1597528.0	1224212.0	664524.0	0.266160	0.610982
     29634.33	0.12797	1760724.0	1349286.0	732831.0	0.266150	0.610416
     29634.83	0.12600	1730004.0	1325570.0	719768.0	0.266281	0.610669
     29635.34	0.12529	1721389.0	1319270.0	716640.0	0.266053	0.610260
     29635.84	0.12572	1726374.0	1322872.0	718653.0	0.266218	0.610182
     29636.35	0.12359	1691738.0	1296735.0	704822.0	0.265907	0.609660
     29636.85	0.12093	1634010.0	1252331.0	680874.0	0.266031	0.609385
     29637.36	0.11582	1548644.0	1187086.0	645401.0	0.265878	0.609385
     29637.86	0.12762	1752231.0	1342962.0	730635.0	0.266012	0.608719
     29638.37	0.12024	1638648.0	1256633.0	683504.0	0.265436	0.608959
     29638.87	0.12803	1762273.0	1351004.0	734802.0	0.265756	0.609002
     29639.38	0.11678	1601821.0	1228026.0	668091.0	0.265733	0.608739
     29639.88	0.11977	1671066.0	1280938.0	697059.0	0.265869	0.608478
     29640.39	0.12576	1750849.0	1342182.0	730538.0	0.265804	0.608271
     29640.89	0.11621	1649331.0	1264377.0	688486.0	0.265790	0.607840
     29641.40	0.13117	1818812.0	1394178.0	759249.0	0.265879	0.607730
     29641.90	0.13206	1845783.0	1415035.0	769981.0	0.265749	0.608544
     29642.41	0.12671	1765013.0	1353402.0	737268.0	0.265537	0.607425
     29642.91	0.13506	1857282.0	1424523.0	775651.0	0.265277	0.607890
     29643.42	0.12894	1768147.0	1356085.0	738798.0	0.265330	0.607333
     29643.93	0.12795	1734803.0	1330412.0	724882.0	0.265405	0.607235
     29644.43	0.11818	1607977.0	1233023.0	671982.0	0.265508	0.606993
     29644.94	0.12311	1660474.0	1273904.0	694315.0	0.265017	0.606916
     29645.44	0.12237	1698935.0	1302964.0	710189.0	0.265360	0.606866
     29645.95	0.12635	1733398.0	1329559.0	724665.0	0.265236	0.606893
     29646.45	0.13107	1777461.0	1363458.0	743310.0	0.265162	0.606666
     29646.96	0.12176	1646400.0	1262913.0	688650.0	0.265170	0.606443
     29647.46	0.12795	1735261.0	1330853.0	725371.0	0.265338	0.606892
     29647.97	0.13138	1789085.0	1372533.0	748605.0	0.265046	0.606202
     29648.48	0.14164	1931125.0	1481407.0	807752.0	0.265110	0.606493
     29648.98	0.12926	1741351.0	1336003.0	728661.0	0.264979	0.606229
     29649.49	0.11558	1579765.0	1211891.0	661166.0	0.265094	0.605932
     29649.99	0.13169	1787840.0	1371848.0	748423.0	0.264849	0.605946
     29650.50	0.13446	1835826.0	1408600.0	768350.0	0.264898	0.606106
     29651.00	0.12235	1657134.0	1271669.0	693991.0	0.264759	0.605626
     29651.51	0.13799	1901239.0	1458758.0	795748.0	0.264920	0.606058
     29652.02	0.13053	1754797.0	1346763.0	735061.0	0.264649	0.605506
     29652.52	0.13989	1886319.0	1447604.0	790008.0	0.264718	0.605622
     29653.03	0.10735	1452448.0	1114422.0	608334.0	0.264915	0.605367
     29653.53	0.12620	1707462.0	1310347.0	715127.0	0.264716	0.605587
     29654.04	0.12177	1680950.0	1290278.0	704630.0	0.264501	0.604940
     29654.54	0.12134	1677462.0	1287014.0	703038.0	0.264957	0.604669
     29655.05	0.12264	1678840.0	1288462.0	703364.0	0.264654	0.605330
     29655.56	0.13804	1883206.0	1445571.0	789176.0	0.264471	0.605270
     29656.06	0.12034	1609223.0	1235397.0	674499.0	0.264359	0.605177
     29656.57	0.14427	1933820.0	1484376.0	810609.0	0.264503	0.604964
     29657.07	0.094460	1322922.0	1015206.0	554649.0	0.264751	0.604511
     29657.58	0.10895	1472675.0	1130314.0	617280.0	0.264585	0.604928
     29658.09	0.10027	1378813.0	1058900.0	578261.0	0.263992	0.604961
     29658.59	0.13021	1789724.0	1374050.0	750798.0	0.264299	0.604381
     29659.10	0.12045	1631071.0	1252006.0	684010.0	0.264490	0.604530
     29659.60	0.10892	1500759.0	1152240.0	629442.0	0.264263	0.604629
     29660.11	0.12965	1790699.0	1375019.0	751119.0	0.264138	0.604659
     29660.62	0.12854	1771971.0	1360404.0	743621.0	0.264311	0.604005
     29661.12	0.12234	1695947.0	1302274.0	711797.0	0.264129	0.604074
     29661.63	0.11406	1609078.0	1235479.0	675118.0	0.264203	0.604327
     29662.13	0.13950	1895243.0	1455132.0	795713.0	0.264250	0.603613
     29662.64	0.12811	1790712.0	1375560.0	751816.0	0.263752	0.604125
     29663.15	0.12672	1744331.0	1339181.0	732121.0	0.264313	0.603868
     29663.65	0.12657	1743854.0	1339812.0	732403.0	0.263568	0.603954
     29664.16	0.14390	1984305.0	1524151.0	833307.0	0.263831	0.603791
     29664.66	0.21601	2990933.0	2297230.0	1256145.0	0.263881	0.603657
     29665.17	0.083737	1143179.0	878054.0	480111.0	0.263860	0.603691
     29665.68	0.077482	1072274.0	823729.0	450535.0	0.263695	0.603406
     29666.18	0.12812	1764725.0	1355630.0	741731.0	0.263729	0.603035
     29666.69	0.11367	1586495.0	1218697.0	666566.0	0.263745	0.603398
     29667.19	0.14214	1969339.0	1512724.0	827957.0	0.263786	0.602706
     29667.70	0.12793	1759825.0	1351823.0	739584.0	0.263760	0.603121
     29668.21	0.13755	1881407.0	1445768.0	791025.0	0.263379	0.603066
     29668.71	0.15020	2068762.0	1589865.0	869796.0	0.263301	0.603146
     29669.22	0.11026	1507380.0	1158043.0	634018.0	0.263642	0.602409
     29669.73	0.12768	1724442.0	1325258.0	725003.0	0.263296	0.603187
     29670.23	0.13383	1826348.0	1403141.0	767739.0	0.263605	0.603019
     29670.74	0.13174	1806086.0	1387811.0	759751.0	0.263434	0.602492
     29671.25	0.13720	1861691.0	1430927.0	783511.0	0.263163	0.602293
     29671.75	0.11883	1591712.0	1222920.0	669616.0	0.263569	0.602292
     29672.26	0.13668	1844558.0	1417426.0	776178.0	0.263397	0.602216
     29672.76	0.13069	1717887.0	1320456.0	723267.0	0.263118	0.601954
     29673.27	0.11221	1498472.0	1151524.0	630716.0	0.263360	0.601986
     29673.78	0.12187	1650459.0	1268618.0	694830.0	0.263125	0.602016
     29674.28	0.12671	1701839.0	1308002.0	716437.0	0.263209	0.601966
     29674.79	0.12564	1692431.0	1300941.0	712573.0	0.263078	0.601961
     29675.30	0.13383	1830053.0	1407016.0	770613.0	0.262874	0.602040
     29675.80	0.11541	1557086.0	1196858.0	655716.0	0.263116	0.601727
     29676.31	0.12569	1708065.0	1312937.0	719531.0	0.263095	0.601422
     29676.82	0.12457	1701968.0	1308295.0	717276.0	0.263060	0.601019
     29677.32	0.12903	1748583.0	1343969.0	736932.0	0.263179	0.600887
     29677.83	0.11030	1502526.0	1154904.0	632933.0	0.263130	0.601408
     29678.34	0.12510	1671205.0	1284859.0	704255.0	0.262896	0.601264
     29678.84	0.12175	1649532.0	1268394.0	695619.0	0.262740	0.600705
     29679.35	0.11361	1545663.0	1188476.0	651643.0	0.262781	0.600930
     29679.86	0.12398	1651287.0	1269521.0	696312.0	0.262915	0.600597
     29680.36	0.12749	1689642.0	1299343.0	712968.0	0.262658	0.600177
     29680.87	0.11550	1536878.0	1181813.0	647961.0	0.262703	0.600974
     29681.38	0.12309	1671957.0	1285480.0	705085.0	0.262863	0.600569
     29681.88	0.12843	1711532.0	1316362.0	722323.0	0.262517	0.600155
     29682.39	0.12775	1718311.0	1321542.0	725171.0	0.262543	0.600147
     29682.90	0.13740	1828747.0	1406285.0	771573.0	0.262680	0.600275
     29683.40	0.12854	1716497.0	1320212.0	724509.0	0.262493	0.600053
     29683.91	0.13223	1787006.0	1374565.0	754126.0	0.262404	0.600333
     29684.42	0.11827	1584445.0	1219042.0	669076.0	0.262169	0.599923
     29684.92	0.11888	1613167.0	1240720.0	681062.0	0.262507	0.599794
     29685.43	0.12830	1749695.0	1345768.0	739230.0	0.262477	0.599111
     29685.94	0.12272	1650136.0	1269404.0	696820.0	0.262310	0.599776
     29686.44	0.12779	1744161.0	1341627.0	736802.0	0.262391	0.599319
     29686.95	0.12917	1746817.0	1343684.0	738452.0	0.262380	0.598614
     29687.46	0.13151	1772124.0	1363416.0	748832.0	0.262186	0.599234
     29687.97	0.12222	1658688.0	1275716.0	700895.0	0.262519	0.598905
     29688.47	0.13309	1799255.0	1383730.0	760208.0	0.262590	0.598946
     29688.98	0.12885	1774037.0	1364841.0	750030.0	0.262220	0.598680
     29689.49	0.12825	1764345.0	1357323.0	745736.0	0.262265	0.598898
     29689.99	0.13194	1821461.0	1401572.0	770220.0	0.262044	0.598674
     29690.50	0.12891	1778168.0	1368025.0	751940.0	0.262216	0.598467
     29691.01	0.13114	1799472.0	1384372.0	760986.0	0.262247	0.598387
     29691.51	0.12663	1757474.0	1352539.0	743523.0	0.261894	0.598339
     29692.02	0.13172	1815893.0	1397388.0	768498.0	0.261973	0.597922
     29692.53	0.11627	1620163.0	1246605.0	685336.0	0.262103	0.598270
     29693.04	0.12047	1677824.0	1290920.0	709870.0	0.262143	0.598029
     29693.54	0.13827	1933521.0	1488032.0	818553.0	0.261888	0.597672
     29694.05	0.11923	1657385.0	1275172.0	701309.0	0.262160	0.597888
     29694.56	0.12821	1786722.0	1374916.0	756495.0	0.261990	0.597452
     29695.06	0.12230	1698150.0	1307222.0	719379.0	0.261635	0.597271
     29695.57	0.12465	1698823.0	1307491.0	719379.0	0.261826	0.597477
     29696.08	0.11815	1642132.0	1263636.0	695428.0	0.262002	0.597221
     29696.59	0.11615	1628380.0	1253309.0	689545.0	0.261798	0.597511
     29697.09	0.12378	1714997.0	1320443.0	726865.0	0.261444	0.596982
     29697.60	0.10748	1471156.0	1132704.0	623757.0	0.261441	0.596602
     29698.11	0.12782	1758293.0	1353936.0	745818.0	0.261328	0.596290
     29698.62	0.10620	1463956.0	1126649.0	620637.0	0.261895	0.596257
     29699.12	0.11835	1639500.0	1262222.0	694878.0	0.261518	0.596893
     29699.63	0.11626	1586139.0	1221450.0	672904.0	0.261264	0.596191
     29700.14	0.12594	1756645.0	1352212.0	745205.0	0.261664	0.595838
     29700.65	0.12057	1691957.0	1302454.0	717698.0	0.261636	0.595957
     29701.15	0.12670	1757971.0	1353557.0	745871.0	0.261424	0.595939
     29701.66	0.11842	1645519.0	1267171.0	698284.0	0.261269	0.595916
     29702.17	0.12876	1793693.0	1380873.0	761252.0	0.261561	0.595507
     29702.67	0.13560	1891499.0	1456496.0	803011.0	0.261336	0.595420
     29703.18	0.13294	1842117.0	1418276.0	782104.0	0.261473	0.595210
     29703.69	0.13554	1860508.0	1432833.0	790311.0	0.261196	0.594982
     29704.20	0.12368	1729873.0	1332618.0	735149.0	0.260903	0.594828
     29704.70	0.13204	1841049.0	1418197.0	782084.0	0.260949	0.595179
     29705.21	0.11307	1566265.0	1206363.0	665703.0	0.261084	0.594522
     29705.72	0.13327	1850468.0	1424995.0	786330.0	0.261270	0.594547
     29706.23	0.13522	1867830.0	1438562.0	793898.0	0.261133	0.594444
     29706.74	0.12910	1785950.0	1375796.0	759147.0	0.260918	0.594592
     29707.24	0.12232	1709988.0	1317016.0	727239.0	0.261118	0.593869
     29707.75	0.14010	1911665.0	1472761.0	813154.0	0.260836	0.593974
     29708.26	0.13141	1823146.0	1404223.0	775431.0	0.261079	0.593820
     29708.77	0.12227	1685807.0	1298598.0	717195.0	0.260959	0.593693
     29709.27	0.14638	1995926.0	1538049.0	849687.0	0.260593	0.593402
     29709.78	0.12503	1703541.0	1312459.0	725204.0	0.260807	0.593205
     29710.29	0.13524	1837357.0	1415520.0	781863.0	0.260831	0.593573
     29710.80	0.13305	1822581.0	1404161.0	775747.0	0.260814	0.593369
     29711.30	0.12764	1771485.0	1364867.0	754272.0	0.260761	0.593059
     29711.81	0.12883	1755685.0	1352595.0	747568.0	0.260834	0.592955
     29712.32	0.12629	1721883.0	1326900.0	733718.0	0.260573	0.592476
     29712.83	0.12613	1722260.0	1327128.0	733661.0	0.260620	0.592725
     29713.34	0.12023	1652615.0	1273574.0	704227.0	0.260532	0.592482
     29713.84	0.12752	1757312.0	1354240.0	748850.0	0.260545	0.592457
     29714.35	0.12108	1658353.0	1278107.0	707019.0	0.260445	0.592078
     29714.86	0.13111	1780551.0	1372289.0	759405.0	0.260443	0.591700
     29715.37	0.11649	1577330.0	1215626.0	672642.0	0.260474	0.591801
     29715.88	0.13236	1800494.0	1387594.0	767648.0	0.260490	0.591995
     29716.38	0.12822	1741530.0	1342546.0	743214.0	0.260196	0.591339
     29716.89	0.11131	1534348.0	1182791.0	655005.0	0.260229	0.590989
     29717.40	0.12523	1748875.0	1347805.0	746165.0	0.260495	0.591286
     29717.91	0.13403	1846300.0	1423439.0	787997.0	0.260108	0.591337
     29718.41	0.10453	1434267.0	1105687.0	612406.0	0.260187	0.590827
     29718.92	0.12650	1715771.0	1322694.0	732919.0	0.260192	0.590391
     29719.43	0.13577	1891540.0	1458198.0	808056.0	0.260190	0.590325
     29719.94	0.11554	1591511.0	1226638.0	679477.0	0.260407	0.590709
     29720.45	0.10324	1424907.0	1098834.0	609041.0	0.259857	0.590119
     29720.96	0.13149	1791824.0	1381483.0	765532.0	0.260077	0.590342
     29721.46	0.12427	1688952.0	1302348.0	721948.0	0.259939	0.589971
     29721.97	0.14203	1960755.0	1511985.0	838169.0	0.259906	0.589959
     29722.48	0.12372	1715418.0	1323189.0	733969.0	0.259612	0.589333
     29722.99	0.12476	1725571.0	1330505.0	737726.0	0.259999	0.589741
     29723.50	0.14154	1961857.0	1513154.0	839208.0	0.259695	0.589493
     29724.00	0.12262	1706238.0	1315756.0	729583.0	0.259880	0.589694
     29724.51	0.12262	1694799.0	1307006.0	725156.0	0.259825	0.589108
     29725.02	0.12134	1680197.0	1295657.0	719004.0	0.259893	0.588906
     29725.53	0.13212	1811497.0	1397583.0	775478.0	0.259409	0.589020
     29726.04	0.11937	1631873.0	1258836.0	699007.0	0.259541	0.588282
     29726.55	0.11944	1641349.0	1266051.0	703130.0	0.259616	0.588116
     29727.05	0.12519	1721856.0	1328011.0	737387.0	0.259720	0.588325
     29727.56	0.13275	1829441.0	1411007.0	783665.0	0.259707	0.588077
     29728.07	0.13727	1838325.0	1418112.0	787810.0	0.259528	0.587825
     29728.58	0.11907	1631426.0	1258445.0	699329.0	0.259578	0.587511
     29729.09	0.12518	1714185.0	1322346.0	734271.0	0.259530	0.588285
     29729.60	0.13327	1811991.0	1397933.0	776757.0	0.259432	0.587622
     29730.10	0.12155	1666643.0	1285525.0	714618.0	0.259644	0.587174
     29730.61	0.12954	1764624.0	1361150.0	756861.0	0.259608	0.586906
     29731.12	0.13858	1906532.0	1471112.0	817658.0	0.259267	0.587330
     29731.63	0.13580	1871159.0	1443712.0	802634.0	0.259340	0.587074
     29732.14	0.20522	2821820.0	2177273.0	1210590.0	0.259309	0.586965
     29732.65	0.10369	1425464.0	1100014.0	611764.0	0.259174	0.586732
     29733.15	0.068295	956125.0	737804.0	410520.0	0.259210	0.586254
     29733.66	0.11200	1544192.0	1191573.0	662772.0	0.259227	0.586599
     29734.17	0.13134	1800950.0	1389878.0	773532.0	0.259098	0.586004
     29734.68	0.12210	1690955.0	1305187.0	726084.0	0.258947	0.586436
     29735.19	0.12263	1689155.0	1304061.0	725674.0	0.258745	0.586138
     29735.70	0.14111	1954913.0	1508836.0	839789.0	0.259007	0.585943
     29736.21	0.18798	2593461.0	2002015.0	1114377.0	0.258839	0.585859
     29736.71	0.13318	1820504.0	1404805.0	782176.0	0.259215	0.585574
     29737.22	0.062645	864379.0	667145.0	371355.0	0.259004	0.585849
     29737.73	0.066122	911219.0	703386.0	391736.0	0.258877	0.585318
     29738.24	0.11628	1589954.0	1227652.0	683307.0	0.258602	0.585914
     29738.75	0.11693	1621126.0	1250981.0	696840.0	0.259193	0.585127
     29739.26	0.13577	1857726.0	1434165.0	799161.0	0.258770	0.584776
     29739.77	0.17325	2367916.0	1828449.0	1018399.0	0.258542	0.585236
     29740.28	0.12487	1693629.0	1307681.0	728645.0	0.258618	0.584824
     29740.78	0.072893	1002272.0	774141.0	431599.0	0.258271	0.584257
     29741.29	0.087856	1189298.0	917945.0	511762.0	0.258981	0.584278
     29741.80	0.13075	1802560.0	1391969.0	775942.0	0.258489	0.584397
     29742.31	0.12800	1751200.0	1352421.0	753854.0	0.258405	0.584453
     29742.82	0.12726	1746246.0	1348806.0	752200.0	0.258249	0.583973
     29743.33	0.13584	1870173.0	1444381.0	805668.0	0.258350	0.583764
     29743.84	0.14421	1959498.0	1513624.0	844179.0	0.258182	0.583897
     29744.35	0.12419	1698999.0	1312344.0	732235.0	0.258224	0.583469
     29744.86	0.11633	1593066.0	1230526.0	686687.0	0.258219	0.583318
     29745.36	0.13786	1871560.0	1445490.0	806769.0	0.258324	0.583166
     29745.87	0.12348	1697678.0	1311054.0	731690.0	0.258430	0.583230
     29746.38	0.13195	1823800.0	1408834.0	786454.0	0.258160	0.582983
     29746.89	0.12288	1687651.0	1303679.0	727606.0	0.258147	0.583186
     29747.40	0.14170	1956733.0	1511669.0	844119.0	0.258062	0.582676
     29747.91	0.15841	2160318.0	1668886.0	931961.0	0.258099	0.582621
     29748.42	0.12990	1794795.0	1386488.0	774143.0	0.258117	0.582773
     29748.93	0.10313	1401775.0	1082941.0	604903.0	0.258059	0.582368
     29749.44	0.13066	1795628.0	1387232.0	774830.0	0.258044	0.582422
     29749.95	0.13225	1806243.0	1395807.0	779870.0	0.257776	0.582101
     29750.45	0.13296	1819065.0	1405385.0	785452.0	0.258011	0.581807
     29750.96	0.13384	1817229.0	1403965.0	784917.0	0.258012	0.581478
     29751.47	0.12841	1743840.0	1347845.0	753053.0	0.257583	0.582127
     29751.98	0.16891	2310737.0	1785544.0	998175.0	0.257843	0.581550
     29752.49	0.10117	1386176.0	1071331.0	598811.0	0.257647	0.581711
     29753.00	0.10845	1485934.0	1148497.0	642069.0	0.257589	0.581514
     29753.51	0.12335	1661070.0	1283503.0	717813.0	0.257869	0.581139
     29754.02	0.12603	1717989.0	1327692.0	742518.0	0.257712	0.581150
     29754.53	0.12899	1761655.0	1361566.0	761422.0	0.257618	0.581203
     29755.04	0.12392	1685528.0	1302903.0	728603.0	0.257484	0.581221
     29755.55	0.12476	1709690.0	1321405.0	739056.0	0.257617	0.581077
     29756.06	0.12934	1756524.0	1357895.0	759360.0	0.257401	0.581215
     29756.57	0.12334	1683312.0	1301335.0	728062.0	0.257373	0.580760
     29757.07	0.12035	1648570.0	1274108.0	712843.0	0.257662	0.580740
     29757.58	0.12304	1690753.0	1306772.0	731403.0	0.257614	0.580351
     29758.09	0.11975	1632565.0	1262271.0	706453.0	0.257240	0.580411
     29758.60	0.10826	1486070.0	1148780.0	642913.0	0.257435	0.580446
     29759.11	0.12859	1753958.0	1356220.0	759043.0	0.257174	0.580398
     29759.62	0.11959	1610937.0	1245645.0	697308.0	0.257163	0.580182
     29760.13	0.11922	1637448.0	1266061.0	708961.0	0.257228	0.579865
     29760.64	0.12173	1645091.0	1272173.0	712540.0	0.257069	0.579646
     29761.15	0.12630	1717071.0	1327948.0	743808.0	0.256985	0.579607
     29761.66	0.11911	1607730.0	1243652.0	696567.0	0.256771	0.579644
     29762.17	0.12214	1653775.0	1279257.0	716375.0	0.256781	0.579831
     29762.68	0.13415	1816019.0	1404765.0	787065.0	0.256777	0.579314
     29763.19	0.13782	1871852.0	1447930.0	811280.0	0.256793	0.579277
     29763.70	0.12197	1655725.0	1280725.0	717686.0	0.256813	0.579149
     29764.21	0.13644	1829935.0	1415450.0	793129.0	0.256833	0.579217
     29764.72	0.13167	1809457.0	1399493.0	784644.0	0.256917	0.578635
     29765.23	0.11880	1624204.0	1256649.0	704607.0	0.256569	0.578564
     29765.74	0.11673	1586316.0	1227248.0	687912.0	0.256640	0.578869
     29766.25	0.12648	1723623.0	1333560.0	747473.0	0.256576	0.578909
     29766.76	0.13524	1832522.0	1417983.0	795102.0	0.256458	0.578520
     29767.26	0.11266	1536467.0	1188567.0	666561.0	0.256737	0.578372
     29767.77	0.12882	1747219.0	1351828.0	758138.0	0.256568	0.578348
     29768.28	0.13026	1762354.0	1363339.0	764854.0	0.256714	0.578007
     29768.79	0.13280	1800282.0	1393108.0	781434.0	0.256406	0.578162
     29769.30	0.13082	1797422.0	1390918.0	780233.0	0.256389	0.578127
     29769.81	0.13529	1834434.0	1419515.0	796199.0	0.256421	0.578221
     29770.32	0.12204	1658761.0	1284018.0	720542.0	0.256077	0.577746
     29770.83	0.13485	1823661.0	1411119.0	791422.0	0.256463	0.578307
     29771.34	0.13042	1780832.0	1378138.0	773478.0	0.256347	0.577591
     29771.85	0.12618	1727367.0	1336946.0	750364.0	0.256210	0.577585
     29772.36	0.12839	1762749.0	1364016.0	765819.0	0.256441	0.577243
     29772.87	0.12536	1727248.0	1337040.0	750684.0	0.256071	0.577229
     29773.38	0.12301	1676434.0	1297302.0	728090.0	0.256382	0.577617
     29773.89	0.12990	1769542.0	1369820.0	768731.0	0.256041	0.577694
     29774.40	0.12939	1781944.0	1378853.0	774072.0	0.256453	0.577342
     29774.91	0.12326	1675041.0	1296587.0	727947.0	0.256102	0.577262
     29775.42	0.12736	1735871.0	1343754.0	754655.0	0.256042	0.576962
     29775.93	0.10676	1447475.0	1120841.0	629445.0	0.255741	0.576996
     29776.44	0.12028	1650176.0	1277605.0	717741.0	0.255895	0.576634
     29776.95	0.10508	1446146.0	1119150.0	628868.0	0.256333	0.576403
     29777.46	0.12214	1664864.0	1288837.0	723863.0	0.256003	0.576893
     29777.97	0.12192	1656067.0	1282355.0	720473.0	0.255747	0.576546
     29778.48	0.11328	1553948.0	1202885.0	675693.0	0.256076	0.576739
     29778.99	0.11015	1486438.0	1151593.0	647081.0	0.255236	0.576430
     29779.50	0.15170	2044072.0	1583027.0	889343.0	0.255605	0.576611
     29780.01	0.10261	1371322.0	1061939.0	597137.0	0.255679	0.575705
     29780.52	0.098335	1295972.0	1003798.0	563934.0	0.255470	0.576609
     29781.03	0.13178	1804343.0	1397309.0	785445.0	0.255648	0.576053
     29781.54	0.13331	1771741.0	1372040.0	771501.0	0.255664	0.575716
     29782.05	0.12411	1685325.0	1304838.0	733866.0	0.255880	0.575508
     29782.56	0.14587	1968666.0	1524719.0	857080.0	0.255546	0.576034
     29783.07	0.12746	1707755.0	1322966.0	743785.0	0.255303	0.575879
     29783.58	0.12901	1758379.0	1362213.0	766078.0	0.255282	0.575582
     29784.09	0.12073	1628274.0	1261273.0	709492.0	0.255399	0.575328
     29784.60	0.13594	1848006.0	1431213.0	804929.0	0.255585	0.575524
     29785.12	0.12768	1715521.0	1329282.0	747792.0	0.255078	0.575269
     29785.63	0.11862	1616519.0	1252360.0	704265.0	0.255245	0.575630
     29786.14	0.13048	1761133.0	1364833.0	767401.0	0.254925	0.575778
     29786.65	0.12742	1738131.0	1346391.0	757318.0	0.255383	0.575400
     29787.16	0.12512	1712425.0	1326863.0	746222.0	0.255093	0.575550
     29787.67	0.13873	1887338.0	1462373.0	822653.0	0.255107	0.575281
     29788.18	0.12471	1687558.0	1307673.0	736005.0	0.255033	0.574768
     29788.69	0.14085	1919552.0	1487394.0	836648.0	0.255066	0.575377
     29789.20	0.14093	1906299.0	1477061.0	830992.0	0.255109	0.575189
     29789.71	0.13323	1806109.0	1399662.0	787714.0	0.254944	0.574851
     29790.22	0.12995	1778238.0	1377877.0	775756.0	0.255079	0.574461
     29790.73	0.12699	1723150.0	1335566.0	752026.0	0.254799	0.574340
     29791.24	0.13651	1845174.0	1430269.0	805329.0	0.254711	0.574367
     29791.75	0.12297	1666331.0	1291465.0	727257.0	0.254847	0.574253
     29792.26	0.12413	1683573.0	1305033.0	735145.0	0.254690	0.573916
     29792.77	0.13101	1792638.0	1389407.0	782712.0	0.254811	0.573868
     29793.28	0.12025	1648969.0	1278170.0	719710.0	0.254721	0.574336
     29793.79	0.13067	1763749.0	1367011.0	770156.0	0.254815	0.573789
     29794.30	0.12558	1709568.0	1325112.0	746470.0	0.254744	0.573897
     29794.81	0.12147	1670782.0	1294883.0	729468.0	0.254871	0.573860
     29795.32	0.12700	1706471.0	1322937.0	745382.0	0.254573	0.573713
     29795.84	0.12815	1702437.0	1320564.0	743903.0	0.254002	0.573904
     29796.35	0.11799	1608040.0	1246619.0	702443.0	0.254581	0.573626
     29796.86	0.12578	1713085.0	1328084.0	748441.0	0.254559	0.573500
     29797.37	0.11841	1615198.0	1252166.0	705744.0	0.254583	0.573378
     29797.88	0.12624	1724922.0	1337027.0	753710.0	0.254733	0.573196
     29798.39	0.11605	1559518.0	1209094.0	681547.0	0.254505	0.573261
     29798.90	0.12014	1610038.0	1248454.0	703879.0	0.254352	0.573055
     29799.41	0.12241	1666366.0	1292429.0	728882.0	0.254122	0.572767
     29799.92	0.11669	1566041.0	1214117.0	684667.0	0.254534	0.572840
     29800.43	0.11931	1648121.0	1278165.0	720923.0	0.254210	0.572648
     29800.94	0.13370	1814453.0	1407252.0	793683.0	0.254145	0.572710
     29801.45	0.12216	1659088.0	1286756.0	725844.0	0.254144	0.572544
     29801.97	0.13131	1763884.0	1367939.0	771891.0	0.254213	0.572217
     29802.48	0.12413	1695019.0	1314541.0	741560.0	0.254206	0.572487
     29802.99	0.13713	1867722.0	1448732.0	817276.0	0.254031	0.572467
     29803.50	0.12740	1722514.0	1336205.0	754074.0	0.253951	0.572098
     29804.01	0.12228	1682239.0	1305201.0	736777.0	0.253769	0.571827
     29804.52	0.13272	1779744.0	1380745.0	779185.0	0.253846	0.572130
     29805.03	0.11741	1614105.0	1251673.0	706530.0	0.254300	0.571871
     29805.54	0.12394	1676618.0	1300742.0	733990.0	0.253844	0.572195
     29806.05	0.12552	1688621.0	1310105.0	739674.0	0.253805	0.571653
     29806.56	0.12177	1656235.0	1284777.0	725329.0	0.253962	0.571715
     29807.07	0.17533	2385914.0	1851121.0	1045509.0	0.253791	0.571288
     29807.59	0.15334	2064582.0	1601903.0	904481.0	0.253735	0.571586
     29808.10	0.085255	1141836.0	886385.0	500435.0	0.253241	0.571674
     29808.61	0.097629	1329726.0	1031707.0	582842.0	0.253758	0.571054
     29809.12	0.12047	1637818.0	1270936.0	717963.0	0.253611	0.571091
     29809.63	0.13910	1878995.0	1458104.0	823883.0	0.253600	0.570864
     29810.14	0.17087	2306326.0	1789601.0	1011236.0	0.253663	0.570819
     29810.65	0.10351	1395439.0	1082624.0	611744.0	0.253821	0.570829
     29811.16	0.14060	1902158.0	1476539.0	834433.0	0.253288	0.570704
     29811.68	0.099651	1322696.0	1026458.0	579939.0	0.253558	0.570946
     29812.19	0.11683	1599431.0	1241116.0	701650.0	0.253637	0.570332
     29812.70	0.14263	1942342.0	1507604.0	852158.0	0.253373	0.570505
     29813.21	0.11477	1579497.0	1225821.0	692984.0	0.253496	0.570359
     29813.72	0.12242	1679399.0	1303259.0	736914.0	0.253568	0.570152
     29814.23	0.15515	2128158.0	1651865.0	934131.0	0.253352	0.570044
     29814.74	0.11778	1605051.0	1245592.0	704644.0	0.253545	0.569673
     29815.25	0.14342	1959557.0	1521153.0	860539.0	0.253250	0.569665
     29815.77	0.094383	1288159.0	1000137.0	565846.0	0.253077	0.569570
     29816.28	0.11309	1537265.0	1193086.0	675200.0	0.253462	0.569290
     29816.79	0.11213	1511884.0	1173965.0	664279.0	0.252970	0.569440
     29817.30	0.12071	1629935.0	1265058.0	716014.0	0.253422	0.569174
     29817.81	0.12376	1660326.0	1289111.0	729504.0	0.253061	0.569343
     29818.32	0.12070	1614358.0	1253871.0	709647.0	0.252702	0.569223
     29818.83	0.11847	1580875.0	1227736.0	694968.0	0.252807	0.569061
     29819.35	0.13907	1855773.0	1440841.0	815529.0	0.253074	0.569145
     29819.86	0.091916	1234644.0	958718.0	543066.0	0.252941	0.568366
     29820.37	0.11394	1521492.0	1181396.0	669149.0	0.252995	0.568445
     29820.88	0.11781	1567869.0	1217859.0	689814.0	0.252623	0.568428
     29821.39	0.12320	1644515.0	1277093.0	723250.0	0.252859	0.568587
     29821.90	0.13492	1815722.0	1410080.0	798980.0	0.252837	0.568066
     29822.42	0.14313	1908112.0	1482038.0	839642.0	0.252696	0.568198
     29822.93	0.15661	2125461.0	1650886.0	935143.0	0.252677	0.568368
     29823.44	0.12858	1730032.0	1343897.0	761621.0	0.252566	0.567880
     29823.95	0.10049	1351876.0	1050173.0	595172.0	0.252538	0.567860
     29824.46	0.11481	1527222.0	1186418.0	672558.0	0.252512	0.567606
     29824.97	0.13315	1781184.0	1383400.0	784509.0	0.252734	0.567241
     29825.49	0.12232	1626815.0	1263697.0	716496.0	0.252583	0.567424
     29826.00	0.13143	1779484.0	1382349.0	784110.0	0.252539	0.566990
     29826.51	0.12939	1747185.0	1357545.0	770001.0	0.252328	0.567041
     29827.02	0.14024	1886661.0	1465793.0	831290.0	0.252412	0.567173
     29827.53	0.12711	1724909.0	1340155.0	760108.0	0.252389	0.567080
     29828.04	0.12205	1674227.0	1300743.0	737942.0	0.252416	0.566826
     29828.56	0.14295	1911051.0	1485074.0	842543.0	0.252189	0.566795
     29829.07	0.12262	1652082.0	1283550.0	728419.0	0.252407	0.566509
     29829.58	0.13628	1816584.0	1411974.0	801120.0	0.251969	0.566733
     29830.09	0.14566	1948479.0	1513786.0	859478.0	0.252435	0.566044
     29830.60	0.12746	1694687.0	1317535.0	747718.0	0.251735	0.566492
     29831.11	0.13475	1808009.0	1405228.0	797887.0	0.252027	0.565988
     29831.63	0.12871	1694908.0	1316979.0	747722.0	0.252288	0.566065
     29832.14	0.11839	1601124.0	1244026.0	706103.0	0.252353	0.566347
     29832.65	0.11932	1596736.0	1241044.0	704820.0	0.252009	0.565766
     29833.16	0.13379	1790179.0	1391722.0	790783.0	0.251774	0.565274
     29833.67	0.12761	1708177.0	1327954.0	754561.0	0.251787	0.565259
     29834.19	0.11759	1576737.0	1225799.0	696262.0	0.251765	0.565622
     29834.70	0.12545	1659243.0	1289783.0	733172.0	0.251887	0.564849
     29835.21	0.13343	1771759.0	1377669.0	782947.0	0.251580	0.565083
     29835.72	0.12095	1577400.0	1226398.0	697084.0	0.251697	0.564931
     29836.23	0.11410	1531636.0	1191228.0	676895.0	0.251352	0.565224
     29836.75	0.12887	1754296.0	1363698.0	775649.0	0.251868	0.564255
     29837.26	0.12393	1663194.0	1293225.0	735331.0	0.251601	0.564574
     29837.77	0.12691	1678412.0	1305237.0	742382.0	0.251463	0.564276
     29838.28	0.11782	1585056.0	1232520.0	700807.0	0.251559	0.564584
     29838.80	0.12730	1718255.0	1335939.0	759966.0	0.251675	0.564116
     29839.31	0.12142	1626357.0	1264694.0	719384.0	0.251512	0.564190
     29839.82	0.11132	1502288.0	1168215.0	664495.0	0.251512	0.564205
     29840.33	0.12439	1658065.0	1289317.0	733908.0	0.251539	0.563484
     29840.84	0.11954	1589492.0	1236359.0	703582.0	0.251244	0.563742
     29841.36	0.11637	1549021.0	1205088.0	685931.0	0.251071	0.563531
     29841.87	0.13112	1754968.0	1364842.0	776829.0	0.251412	0.563574
     29842.38	0.13358	1800009.0	1400001.0	797071.0	0.251319	0.563284
     29842.89	0.12926	1720671.0	1338076.0	761837.0	0.251482	0.563255
     29843.41	0.13279	1733623.0	1348760.0	768308.0	0.251028	0.562750
     29843.92	0.12994	1722056.0	1339696.0	762675.0	0.251076	0.563366
     29844.43	0.12458	1663646.0	1294101.0	736999.0	0.251195	0.562985
     29844.94	0.11767	1561518.0	1215207.0	692049.0	0.250744	0.563013
     29845.46	0.12617	1677742.0	1305389.0	743686.0	0.250948	0.562637
     29845.97	0.12302	1640837.0	1276499.0	727221.0	0.251085	0.562646
     29846.48	0.13149	1759565.0	1368877.0	780028.0	0.251076	0.562416
     29846.99	0.11709	1561456.0	1214826.0	692405.0	0.251018	0.562185
     29847.50	0.13186	1742283.0	1355570.0	772845.0	0.250974	0.561899
     29848.02	0.11681	1543671.0	1201106.0	684623.0	0.250921	0.562130
     29848.53	0.13689	1849011.0	1438579.0	820328.0	0.250995	0.561707
     29849.04	0.13388	1795273.0	1396876.0	796515.0	0.250919	0.561748
     29849.56	0.12239	1635680.0	1272829.0	725994.0	0.250817	0.561456
     29850.07	0.13114	1738598.0	1353155.0	771444.0	0.250640	0.561930
     29850.58	0.12815	1710944.0	1331056.0	759474.0	0.251073	0.561102
     29851.09	0.13575	1823604.0	1419492.0	809783.0	0.250516	0.561288
     29851.61	0.12803	1724208.0	1341788.0	765661.0	0.250765	0.561019
     29852.12	0.12196	1622637.0	1262519.0	720647.0	0.250944	0.560715
     29852.63	0.12788	1693181.0	1317831.0	752215.0	0.250622	0.560720
     29853.14	0.13112	1766346.0	1374633.0	784667.0	0.250726	0.560683
     29853.66	0.12220	1645555.0	1281495.0	730876.0	0.250050	0.561539
     29854.17	0.12951	1744593.0	1357812.0	774918.0	0.250647	0.560873
     29854.68	0.12669	1699761.0	1322734.0	755330.0	0.250787	0.560301
     29855.19	0.11501	1533618.0	1193571.0	681668.0	0.250680	0.560162
     29855.71	0.12247	1632615.0	1271073.0	725941.0	0.250322	0.560148
     29856.22	0.12502	1673847.0	1303347.0	744691.0	0.250189	0.559721
     29856.73	0.11871	1602349.0	1247197.0	712170.0	0.250572	0.560337
     29857.25	0.11474	1551079.0	1207303.0	689816.0	0.250562	0.559719
     29857.76	0.11521	1548224.0	1205448.0	688834.0	0.250257	0.559606
     29858.27	0.12215	1614204.0	1257009.0	718032.0	0.250107	0.559976
     29858.78	0.12171	1638075.0	1275521.0	728547.0	0.250167	0.560058
     29859.30	0.11768	1557857.0	1212994.0	693417.0	0.250219	0.559215
     29859.81	0.11529	1511946.0	1177055.0	672892.0	0.250382	0.559186
     29860.32	0.11458	1524165.0	1186612.0	678421.0	0.250345	0.559089
     29860.84	0.12524	1674006.0	1303591.0	745153.0	0.250097	0.559288
     29861.35	0.11753	1585815.0	1234859.0	706234.0	0.250142	0.558765
     29861.86	0.12124	1592022.0	1240039.0	709111.0	0.249862	0.558886
     29862.37	0.12995	1724274.0	1342722.0	767852.0	0.250107	0.558857
     29862.89	0.13578	1801674.0	1403259.0	802369.0	0.249919	0.558984
     29863.40	0.12257	1649164.0	1284210.0	734800.0	0.250125	0.558301
     29863.91	0.13329	1771490.0	1379693.0	789576.0	0.249960	0.558120
     29864.43	0.12851	1700033.0	1324437.0	757624.0	0.249660	0.558556
     29864.94	0.12356	1626717.0	1267232.0	725123.0	0.249729	0.558249
     29865.45	0.13491	1764623.0	1374979.0	787023.0	0.249499	0.557936
     29865.97	0.12196	1624504.0	1265676.0	724392.0	0.249596	0.558029
     29866.48	0.13968	1881563.0	1466015.0	839329.0	0.249555	0.557700
     29866.99	0.12279	1626562.0	1267352.0	725531.0	0.249539	0.557781
     29867.50	0.13305	1786090.0	1391525.0	796486.0	0.249629	0.557946
     29868.02	0.12725	1688527.0	1315527.0	753783.0	0.249619	0.556888
     29868.53	0.13259	1772271.0	1381181.0	791069.0	0.249323	0.557309
     29869.04	0.11974	1602223.0	1248382.0	714990.0	0.249544	0.557335
     29869.56	0.14050	1908785.0	1487190.0	851816.0	0.249578	0.557273
     29870.07	0.13430	1833806.0	1428827.0	818450.0	0.249540	0.557197
     29870.58	0.12801	1742803.0	1358122.0	778399.0	0.249392	0.556619
     29871.10	0.13938	1847854.0	1440313.0	825565.0	0.249165	0.556548
     29871.61	0.14314	1950231.0	1519974.0	870943.0	0.249255	0.556872
     29872.12	0.12355	1637492.0	1276414.0	731646.0	0.249111	0.556513
     29872.64	0.11835	1563336.0	1218824.0	698504.0	0.248936	0.556701
     29873.15	0.13713	1832144.0	1428184.0	818781.0	0.249083	0.556342
     29873.66	0.12352	1621312.0	1263666.0	724545.0	0.249219	0.556228
     29874.18	0.12105	1607261.0	1252672.0	718607.0	0.249253	0.555720
     29874.69	0.12283	1649834.0	1286111.0	737490.0	0.249052	0.556126
     29875.20	0.13457	1807529.0	1409010.0	808130.0	0.249073	0.555920
     29875.72	0.12776	1716553.0	1338217.0	767587.0	0.248980	0.555842
     29876.23	0.12558	1687076.0	1315371.0	754474.0	0.248878	0.555853
     29876.74	0.11032	1469550.0	1145482.0	657275.0	0.249131	0.555478
     29877.26	0.12442	1640256.0	1279042.0	733816.0	0.248741	0.555608
     29877.77	0.12867	1714945.0	1337172.0	767219.0	0.248824	0.555540
     29878.29	0.12664	1692330.0	1319507.0	757478.0	0.248848	0.555019
     29878.80	0.12114	1572615.0	1226498.0	704279.0	0.248577	0.554744
     29879.31	0.11211	1489905.0	1162025.0	667004.0	0.248548	0.555123
     29879.83	0.13181	1725901.0	1345842.0	772418.0	0.248729	0.555249
     29880.34	0.12011	1586879.0	1237125.0	710358.0	0.248979	0.554776
     29880.85	0.10560	1411120.0	1100515.0	631932.0	0.248605	0.554752
     29881.37	0.12828	1659124.0	1294148.0	743303.0	0.248437	0.554504
     29881.88	0.12245	1644506.0	1282536.0	736505.0	0.248601	0.554679
     29882.39	0.12979	1720429.0	1341759.0	770880.0	0.248592	0.554204
     29882.91	0.11424	1533627.0	1196076.0	686983.0	0.248589	0.554492
     29883.42	0.12945	1734331.0	1352665.0	777052.0	0.248545	0.554325
     29883.94	0.13111	1757396.0	1370569.0	787657.0	0.248607	0.553919
     29884.45	0.13140	1745337.0	1361406.0	782676.0	0.248430	0.553554
     29884.96	0.12547	1678730.0	1309087.0	752584.0	0.248708	0.553573
     29885.48	0.13297	1769234.0	1380276.0	793503.0	0.248263	0.553581
     29885.99	0.12405	1658893.0	1294045.0	743953.0	0.248378	0.553550
     29886.50	0.12304	1658007.0	1293477.0	743677.0	0.248282	0.553482
     29887.02	0.12050	1620260.0	1263627.0	726646.0	0.248600	0.553302
     29887.53	0.14233	1871142.0	1459909.0	839428.0	0.248175	0.553409
     29888.05	0.11628	1518597.0	1185070.0	681522.0	0.247985	0.553229
     29888.56	0.12182	1608472.0	1254905.0	721859.0	0.248225	0.552985
     29889.07	0.13417	1754509.0	1369233.0	787579.0	0.247938	0.553042
     29889.59	0.11267	1504874.0	1174049.0	675705.0	0.248251	0.552457
     29890.10	0.12655	1678026.0	1309544.0	753359.0	0.247939	0.552892
     29890.62	0.13201	1751041.0	1366093.0	786025.0	0.248256	0.552722
     29891.13	0.13767	1804054.0	1407592.0	810187.0	0.248156	0.552371
     29891.64	0.12700	1671784.0	1304577.0	750440.0	0.248012	0.552974
     29892.16	0.13379	1773457.0	1383835.0	796448.0	0.248072	0.552452
     29892.67	0.13221	1746807.0	1363566.0	784843.0	0.247686	0.552375
     29893.19	0.13730	1819259.0	1419791.0	817465.0	0.247920	0.552057
     29893.70	0.10848	1414226.0	1103652.0	635538.0	0.247958	0.551908
     29894.21	0.13520	1794205.0	1399786.0	806527.0	0.248243	0.551337
     29894.73	0.12130	1598448.0	1247628.0	718632.0	0.247789	0.551650
     29895.24	0.12488	1629100.0	1271530.0	732083.0	0.247807	0.552082
     29895.76	0.12434	1642122.0	1281946.0	738363.0	0.247610	0.551699
     29896.27	0.13026	1697963.0	1325807.0	763576.0	0.247408	0.551764
     29896.78	0.13274	1734220.0	1353897.0	779949.0	0.247571	0.551514
     29897.30	0.14070	1853580.0	1447038.0	833750.0	0.247600	0.551340
     29897.81	0.10153	1356119.0	1058957.0	609993.0	0.247342	0.551592
     29898.33	0.12925	1694638.0	1323339.0	762598.0	0.247311	0.551182
     29898.84	0.11235	1466416.0	1145112.0	660115.0	0.247319	0.550844
     29899.36	0.11157	1474462.0	1150988.0	663460.0	0.247672	0.550907
     29899.87	0.11819	1579549.0	1233604.0	710964.0	0.247199	0.551073
     29900.38	0.12380	1649249.0	1287946.0	742489.0	0.247271	0.550796
     29900.90	0.11605	1535717.0	1199189.0	691378.0	0.247352	0.550714
     29901.41	0.14482	1870911.0	1461606.0	842462.0	0.246890	0.550963
     29901.93	0.096041	1259506.0	983406.0	567001.0	0.247453	0.550661
     29902.44	0.10091	1349547.0	1054092.0	607639.0	0.247089	0.550854
     29902.96	0.11888	1571729.0	1227448.0	708256.0	0.247239	0.549887
     29903.47	0.12978	1692122.0	1321565.0	762370.0	0.247167	0.550140
     29903.98	0.12388	1630402.0	1273201.0	734390.0	0.247292	0.550249
     29904.50	0.12719	1662025.0	1298102.0	749025.0	0.247134	0.549886
     29905.01	0.13444	1788738.0	1397370.0	806288.0	0.246918	0.549906
     29905.53	0.12884	1710652.0	1335843.0	771032.0	0.247312	0.549588
     29906.04	0.11805	1549915.0	1211008.0	698761.0	0.246747	0.549900
     29906.56	0.14054	1852389.0	1447567.0	835465.0	0.246592	0.549651
     29907.07	0.13060	1756516.0	1371696.0	791703.0	0.247284	0.549617
     29907.59	0.12209	1598018.0	1248556.0	720722.0	0.246776	0.549489
     29908.10	0.14375	1880674.0	1469581.0	848441.0	0.246653	0.549332
     29908.62	0.12141	1617883.0	1264274.0	729874.0	0.246620	0.549381
     29909.13	0.14770	1967910.0	1537703.0	887354.0	0.246682	0.549801
     29909.64	0.16464	2189413.0	1710346.0	987565.0	0.246938	0.549209
     29910.16	0.084621	1125597.0	879707.0	507862.0	0.246480	0.549379
     29910.67	0.14257	1889370.0	1476384.0	852764.0	0.246648	0.548868
     29911.19	0.10135	1351182.0	1055909.0	609653.0	0.246578	0.549267
     29911.70	0.13272	1772693.0	1385315.0	800221.0	0.246572	0.548795
     29912.22	0.14556	1932366.0	1510539.0	872852.0	0.246279	0.548456
     29912.73	0.13021	1704483.0	1331969.0	769690.0	0.246604	0.548426
     29913.25	0.12951	1686519.0	1318026.0	761619.0	0.246531	0.548444
     29913.76	0.13033	1699366.0	1328171.0	767508.0	0.246452	0.548409
     29914.28	0.12078	1594185.0	1246029.0	720284.0	0.246401	0.548071
     29914.79	0.13680	1794916.0	1403023.0	811110.0	0.246329	0.547981
     29915.31	0.13005	1695453.0	1325275.0	766333.0	0.246330	0.547758
     29915.82	0.12610	1652906.0	1292056.0	747219.0	0.246300	0.547632
     29916.34	0.12398	1599705.0	1250631.0	723120.0	0.246171	0.547828
     29916.85	0.12720	1649036.0	1289319.0	745228.0	0.246077	0.548179
     29917.37	0.11829	1546076.0	1209010.0	699178.0	0.245918	0.547652
     29917.88	0.13173	1728177.0	1351243.0	781349.0	0.246042	0.547758
     29918.40	0.12099	1559935.0	1219665.0	705199.0	0.246068	0.547851
     29918.91	0.11760	1506138.0	1177834.0	681467.0	0.245872	0.547185
     29919.43	0.12729	1666771.0	1303157.0	754133.0	0.246098	0.546976
     29919.94	0.12662	1645356.0	1286747.0	744585.0	0.245839	0.547046
     29920.46	0.12058	1559415.0	1219774.0	705568.0	0.245645	0.547418
     29920.97	0.12533	1645615.0	1286432.0	744650.0	0.246242	0.546713
     29921.49	0.12064	1548414.0	1210900.0	700635.0	0.245867	0.547132
     29922.00	0.12120	1580351.0	1236091.0	715370.0	0.245693	0.546909
     29922.52	0.12228	1572322.0	1229660.0	711761.0	0.245816	0.546751
     29923.03	0.10983	1423846.0	1113898.0	644708.0	0.245496	0.546823
     29923.55	0.12183	1575341.0	1232161.0	713251.0	0.245702	0.546691
     29924.06	0.12454	1586327.0	1240960.0	718471.0	0.245536	0.546515
     29924.58	0.12881	1669248.0	1305839.0	756321.0	0.245527	0.546135
     29925.09	0.12231	1573500.0	1230926.0	712582.0	0.245536	0.546627
     29925.61	0.13115	1717215.0	1343280.0	778142.0	0.245589	0.545961
     29926.12	0.12665	1631610.0	1276664.0	739593.0	0.245317	0.545906
     29926.64	0.13109	1715681.0	1342203.0	777552.0	0.245498	0.545917
     29927.15	0.12128	1560871.0	1221628.0	707673.0	0.245060	0.545958
     29927.67	0.13361	1700288.0	1330482.0	770925.0	0.245256	0.545705
     29928.18	0.12660	1604089.0	1255062.0	727333.0	0.245371	0.545556
     29928.70	0.12452	1565913.0	1225466.0	710328.0	0.245148	0.545350
     29929.21	0.12459	1612392.0	1261821.0	731386.0	0.245163	0.545370
     29929.73	0.11666	1457756.0	1140699.0	661581.0	0.245257	0.544764
     29930.24	0.13314	1701581.0	1331898.0	772267.0	0.244953	0.545030
     29930.76	0.12278	1569753.0	1228766.0	712527.0	0.244908	0.544948
     29931.27	0.12036	1510239.0	1182060.0	685509.0	0.245009	0.544852
     29931.79	0.12283	1540783.0	1206047.0	699461.0	0.244943	0.544793
     29932.31	0.13425	1678064.0	1313284.0	761800.0	0.245110	0.544602
     29932.82	0.12455	1574382.0	1232294.0	714778.0	0.244985	0.544661
     29933.34	0.13172	1655860.0	1296383.0	752449.0	0.244742	0.544000
     29933.85	0.13393	1685607.0	1319184.0	765401.0	0.245112	0.544369
     29934.37	0.12595	1603887.0	1255542.0	728585.0	0.244863	0.544218
     29934.88	0.12926	1589104.0	1244039.0	722014.0	0.244807	0.544074
     29935.40	0.13207	1647437.0	1289621.0	748652.0	0.244872	0.543829
     29935.91	0.12928	1578322.0	1235750.0	717125.0	0.244684	0.544183
     29936.43	0.11856	1511285.0	1182802.0	686601.0	0.245074	0.543888
     29936.94	0.12980	1630927.0	1276759.0	741288.0	0.244824	0.543691
     29937.46	0.12577	1575133.0	1233709.0	716213.0	0.244315	0.543803
     29937.98	0.13611	1742854.0	1364939.0	792581.0	0.244414	0.543570
     29938.49	0.11824	1475532.0	1155325.0	670819.0	0.244637	0.543638
     29939.01	0.12171	1533400.0	1200801.0	697264.0	0.244499	0.543580
     29939.52	0.12868	1619334.0	1267891.0	736557.0	0.244660	0.543124
     29940.04	0.12220	1538886.0	1205193.0	699849.0	0.244419	0.543530
     29940.55	0.11646	1474206.0	1154932.0	671116.0	0.244078	0.542855
     29941.07	0.11495	1437284.0	1125782.0	654164.0	0.244277	0.542875
     29941.59	0.13093	1653520.0	1295133.0	752495.0	0.244293	0.542974
     29942.10	0.10603	1304047.0	1021552.0	593754.0	0.244149	0.542613
     29942.62	0.12618	1576144.0	1234881.0	717735.0	0.244007	0.542629
     29943.13	0.11173	1402796.0	1098793.0	638950.0	0.244255	0.542141
     29943.65	0.11730	1466821.0	1149309.0	668192.0	0.243937	0.542341
     29944.16	0.10822	1346615.0	1055253.0	613565.0	0.243813	0.542250
     29944.68	0.11414	1447338.0	1134124.0	659293.0	0.243865	0.542448
     29945.20	0.13941	1746091.0	1368007.0	795512.0	0.244025	0.542124
     29945.71	0.11801	1486909.0	1164724.0	677413.0	0.244215	0.541958
     29946.23	0.13430	1685427.0	1320376.0	767926.0	0.244102	0.541978
     29946.74	0.13604	1704579.0	1335637.0	776739.0	0.243910	0.542059
     29947.26	0.12541	1581084.0	1238855.0	720779.0	0.243923	0.541610
     29947.78	0.12207	1540252.0	1206662.0	702165.0	0.244088	0.541445
     29948.29	0.12581	1585582.0	1242495.0	722911.0	0.243830	0.541591
     29948.81	0.13709	1714638.0	1343723.0	781964.0	0.243758	0.541391
     29949.32	0.13381	1678356.0	1315342.0	765586.0	0.243718	0.541210
     29949.84	0.13261	1628999.0	1276837.0	743136.0	0.243580	0.541262
     29950.36	0.12696	1641172.0	1285644.0	748230.0	0.244151	0.541305
     29950.87	0.12267	1549704.0	1214810.0	707237.0	0.243476	0.540977
     29951.39	0.13686	1705244.0	1336857.0	778149.0	0.243387	0.541159
     29951.90	0.12171	1553049.0	1217468.0	709030.0	0.243447	0.540631
     29952.42	0.13025	1658645.0	1299981.0	756867.0	0.243651	0.540917
     29952.94	0.13937	1730479.0	1356553.0	790040.0	0.243451	0.540619
     29953.45	0.11992	1509486.0	1183582.0	689239.0	0.243224	0.540713
     29953.97	0.14540	1846793.0	1447876.0	843259.0	0.243353	0.540579
     29954.48	0.12320	1564430.0	1226334.0	714259.0	0.243492	0.540539
     29955.00	0.13236	1689286.0	1324154.0	771454.0	0.243532	0.540252
     29955.52	0.12522	1583204.0	1241471.0	723548.0	0.243154	0.539885
     29956.03	0.13308	1668324.0	1307978.0	762177.0	0.243337	0.540059
     29956.55	0.12686	1612784.0	1264740.0	736985.0	0.243095	0.540054
     29957.07	0.13219	1663701.0	1304615.0	760712.0	0.243137	0.539408
     29957.58	0.12098	1510872.0	1184709.0	690849.0	0.243190	0.539331
     29958.10	0.12624	1598700.0	1253421.0	730690.0	0.243314	0.539643
     29958.61	0.12542	1599427.0	1253845.0	731226.0	0.243431	0.539248
     29959.13	0.12182	1543025.0	1210476.0	705627.0	0.242731	0.539682
     29959.65	0.12802	1664908.0	1305448.0	761101.0	0.243224	0.539535
     29960.16	0.12476	1615034.0	1266624.0	738893.0	0.243001	0.538957
     29960.68	0.12393	1586161.0	1243744.0	725441.0	0.243190	0.539102
     29961.20	0.13124	1676465.0	1314459.0	766876.0	0.243262	0.538855
     29961.71	0.12965	1681605.0	1318943.0	769181.0	0.242918	0.539260
     29962.23	0.12004	1560068.0	1223581.0	714192.0	0.242948	0.538385
     29962.75	0.11586	1458605.0	1144266.0	667460.0	0.242717	0.539039
     29963.26	0.11998	1507677.0	1182563.0	690580.0	0.242886	0.537908
     29963.78	0.12199	1556943.0	1220818.0	712296.0	0.243203	0.538783
     29964.30	0.12127	1551899.0	1217170.0	710428.0	0.242951	0.538416
     29964.81	0.12922	1661332.0	1303337.0	760661.0	0.242692	0.538495
     29965.33	0.11537	1518539.0	1191303.0	695202.0	0.242701	0.538600
     29965.84	0.12672	1669720.0	1309930.0	764774.0	0.242682	0.538149
     29966.36	0.11675	1542941.0	1210622.0	706665.0	0.242556	0.538333
     29966.88	0.12597	1668830.0	1309149.0	764569.0	0.242745	0.537820
     29967.39	0.13635	1782623.0	1398552.0	816706.0	0.242648	0.537914
     29967.91	0.12127	1579735.0	1239448.0	723776.0	0.242591	0.537939
     29968.43	0.12185	1600242.0	1255394.0	733743.0	0.242705	0.537046
     29968.94	0.13295	1742360.0	1366418.0	797884.0	0.243048	0.537985
     29969.46	0.12764	1617474.0	1269524.0	741948.0	0.242224	0.537118
     29969.98	0.13262	1709537.0	1341712.0	784080.0	0.242276	0.537191
     29970.49	0.11923	1550571.0	1216495.0	710959.0	0.242649	0.537114
     29971.01	0.13751	1768570.0	1388063.0	811407.0	0.242262	0.536895
     29971.53	0.13232	1704514.0	1337606.0	781838.0	0.242399	0.536989
     29972.04	0.11694	1518500.0	1191895.0	696756.0	0.242179	0.536864
     29972.56	0.10943	1407597.0	1104626.0	645922.0	0.242377	0.536583
     29973.08	0.12162	1590501.0	1248126.0	729734.0	0.242406	0.536718
     29973.60	0.13188	1738297.0	1364388.0	797596.0	0.242200	0.536859
     29974.11	0.13788	1779917.0	1396819.0	816788.0	0.242369	0.536573
     29974.63	0.12058	1567213.0	1230175.0	719250.0	0.242142	0.536703
     29975.15	0.13665	1783890.0	1400332.0	818967.0	0.242087	0.536421
     29975.66	0.12862	1666501.0	1307713.0	765166.0	0.242446	0.535942
     29976.18	0.14646	1901970.0	1492943.0	873305.0	0.242141	0.536220
     29976.70	0.099652	1280526.0	1005352.0	588156.0	0.241933	0.536101
     29977.21	0.13246	1745928.0	1371011.0	802235.0	0.241738	0.535902
     29977.73	0.13367	1749774.0	1373757.0	804144.0	0.241937	0.535526
     29978.25	0.12173	1608129.0	1262641.0	739273.0	0.241866	0.535294
     29978.76	0.13787	1792178.0	1407066.0	823580.0	0.241925	0.535601
     29979.28	0.12029	1561675.0	1226129.0	717770.0	0.241897	0.535468
     29979.80	0.13390	1749235.0	1373512.0	804294.0	0.241808	0.535161
     29980.32	0.15954	2037726.0	1599728.0	936649.0	0.242001	0.535280
     29980.83	0.10069	1297603.0	1019284.0	596866.0	0.241418	0.535163
     29981.35	0.11514	1475558.0	1158550.0	678451.0	0.241867	0.535112
     29981.87	0.11477	1510248.0	1186171.0	694787.0	0.241543	0.534880
     29982.38	0.10394	1332121.0	1046359.0	612929.0	0.241456	0.534823
     29982.90	0.12963	1667806.0	1310050.0	767192.0	0.241444	0.535083
     29983.42	0.14368	1813341.0	1424140.0	834483.0	0.241603	0.534511
     29983.94	0.11548	1480134.0	1162617.0	681146.0	0.241459	0.534652
     29984.45	0.12661	1641952.0	1290192.0	755979.0	0.241095	0.534533
     29984.97	0.085959	1117829.0	878019.0	514333.0	0.241475	0.534797
     29985.49	0.12386	1632278.0	1282354.0	751283.0	0.241279	0.534670
     29986.00	0.10850	1389615.0	1091674.0	640304.0	0.241314	0.533525
     29986.52	0.11061	1447197.0	1136743.0	666288.0	0.241461	0.534200
     29987.04	0.13357	1752109.0	1376480.0	807048.0	0.241291	0.533902
     29987.56	0.12772	1658571.0	1303328.0	764307.0	0.241035	0.533707
     29988.07	0.16752	2179336.0	1712397.0	1003950.0	0.241126	0.533952
     29988.59	0.14668	1882762.0	1479161.0	867266.0	0.241265	0.533885
     29989.11	0.082083	1054870.0	828904.0	486149.0	0.241068	0.533589
     29989.63	0.12258	1588301.0	1248092.0	731934.0	0.241049	0.533681
     29990.14	0.10649	1370169.0	1076611.0	631503.0	0.241116	0.533471
     29990.66	0.13247	1699534.0	1335934.0	783766.0	0.240723	0.533275
     29991.18	0.12914	1673189.0	1315130.0	771242.0	0.240796	0.533689
     29991.70	0.13234	1656830.0	1302158.0	764195.0	0.240883	0.532955
     29992.21	0.17007	2169591.0	1705406.0	1000423.0	0.240735	0.533380
     29992.73	0.15853	1994481.0	1567787.0	920161.0	0.240719	0.532872
     29993.25	0.077020	979656.0	770316.0	452082.0	0.240401	0.532937
     29993.77	0.12095	1571837.0	1235364.0	725083.0	0.240879	0.532835
     29994.28	0.12574	1613190.0	1268113.0	743969.0	0.240684	0.533286
     29994.80	0.12532	1603878.0	1260839.0	740244.0	0.240647	0.532553
     29995.32	0.13380	1696170.0	1333064.0	782506.0	0.240893	0.532734
     29995.84	0.15426	1960433.0	1541428.0	904963.0	0.240456	0.532570
     29996.35	0.18676	2401655.0	1888178.0	1109086.0	0.240546	0.532076
     29996.87	0.099433	1274943.0	1002344.0	588790.0	0.240560	0.532027
     29997.39	0.094159	1214849.0	954979.0	560970.0	0.240686	0.532022
     29997.91	0.12679	1625978.0	1278190.0	750895.0	0.240664	0.531934
     29998.42	0.13393	1705859.0	1341481.0	787964.0	0.240295	0.532077
     29998.94	0.12307	1592752.0	1251986.0	735839.0	0.240732	0.531475
     29999.46	0.13148	1636998.0	1287378.0	756506.0	0.240256	0.531652
     29999.98	0.11866	1506995.0	1185158.0	696561.0	0.240242	0.531476
     30000.50	0.12821	1597604.0	1256503.0	738298.0	0.240173	0.531740
     30001.01	0.11862	1505078.0	1183522.0	695563.0	0.240350	0.531528
     30001.53	0.12900	1643012.0	1292324.0	759633.0	0.240089	0.531362
     30002.05	0.12322	1530632.0	1203968.0	707720.0	0.240058	0.531330
     30002.57	0.12939	1598534.0	1257648.0	739504.0	0.239844	0.531019
     30003.08	0.12161	1514321.0	1191267.0	700376.0	0.239950	0.531155
     30003.60	0.12849	1629311.0	1281546.0	753790.0	0.240090	0.530709
     30004.12	0.12506	1556376.0	1224453.0	720327.0	0.239866	0.530544
     30004.64	0.11316	1407582.0	1107340.0	651413.0	0.239913	0.530572
     30005.16	0.11205	1409007.0	1108727.0	652194.0	0.239673	0.530626
     30005.67	0.11760	1493778.0	1175011.0	691472.0	0.240031	0.530210
     30006.19	0.13130	1635976.0	1286792.0	757277.0	0.240087	0.530178
     30006.71	0.11896	1512678.0	1190220.0	700152.0	0.239743	0.530596
     30007.23	0.12070	1510895.0	1188944.0	699555.0	0.239637	0.530376
     30007.75	0.12937	1606354.0	1264245.0	744111.0	0.239492	0.530040
     30008.26	0.12596	1553468.0	1222484.0	719114.0	0.239605	0.530620
     30008.78	0.12473	1534323.0	1207460.0	710786.0	0.239570	0.529903
     30009.30	0.12673	1586850.0	1249328.0	735464.0	0.239145	0.529859
     30009.82	0.13112	1629415.0	1282097.0	754984.0	0.239724	0.529556
     30010.34	0.13783	1679478.0	1321773.0	778639.0	0.239509	0.529182
     30010.86	0.12308	1504028.0	1184193.0	697168.0	0.239085	0.529790
     30011.37	0.12733	1583784.0	1246773.0	734380.0	0.239258	0.529287
     30011.89	0.12285	1522337.0	1198333.0	705694.0	0.239315	0.529505
     30012.41	0.12554	1599927.0	1258932.0	741358.0	0.239694	0.529535
     30012.93	0.12338	1555891.0	1224063.0	721283.0	0.239873	0.528899
     30013.45	0.12783	1583133.0	1246144.0	734238.0	0.239352	0.528976
     30013.96	0.12672	1564737.0	1232163.0	726147.0	0.238947	0.528774
     30014.48	0.12596	1561920.0	1229630.0	724630.0	0.239203	0.528807
     30015.00	0.13175	1607108.0	1265357.0	745715.0	0.239082	0.528766
     30015.52	0.12941	1564538.0	1232014.0	726143.0	0.238940	0.528659
     30016.04	0.12442	1521261.0	1197699.0	706265.0	0.239137	0.528167
     30016.56	0.12968	1597524.0	1257901.0	741493.0	0.239010	0.528534
     30017.07	0.12678	1591942.0	1253318.0	738974.0	0.239160	0.528287
     30017.59	0.12495	1552232.0	1222280.0	720532.0	0.238976	0.528483
     30018.11	0.14237	1771882.0	1395368.0	822812.0	0.238884	0.528186
     30018.63	0.12170	1549642.0	1220391.0	719811.0	0.238853	0.527938
     30019.15	0.12354	1517271.0	1195081.0	705063.0	0.238699	0.527682
     30019.67	0.13723	1710148.0	1346579.0	794247.0	0.239013	0.527928
     30020.18	0.11929	1489812.0	1173087.0	691956.0	0.239011	0.527872
     30020.70	0.13153	1674302.0	1317884.0	777697.0	0.239369	0.527446
     30021.22	0.12342	1549074.0	1220288.0	719947.0	0.238570	0.527665
     30021.74	0.12329	1533480.0	1207443.0	712768.0	0.239035	0.527104
     30022.26	0.12342	1551345.0	1221780.0	720980.0	0.238813	0.527453
     30022.78	0.12186	1563263.0	1231558.0	726731.0	0.238495	0.527479
     30023.30	0.12146	1548133.0	1219351.0	719520.0	0.238731	0.527490
     30023.81	0.12127	1540141.0	1212968.0	716307.0	0.238804	0.526717
     30024.33	0.10227	1298428.0	1022886.0	603960.0	0.238526	0.526875
     30024.85	0.14808	1911172.0	1505402.0	889059.0	0.238657	0.526652
     30025.37	0.11274	1435475.0	1130399.0	667369.0	0.238925	0.526983
     30025.89	0.098085	1228308.0	967834.0	571642.0	0.238332	0.526548
     30026.41	0.11787	1495152.0	1177724.0	695685.0	0.238644	0.526442
     30026.93	0.10871	1360224.0	1071575.0	632834.0	0.238520	0.526677
     30027.44	0.12638	1613562.0	1271150.0	750701.0	0.238522	0.526670
     30027.96	0.12502	1585139.0	1248915.0	738020.0	0.238397	0.526060
     30028.48	0.12488	1610106.0	1268917.0	749777.0	0.238136	0.526143
     30029.00	0.13842	1766845.0	1391809.0	822613.0	0.238591	0.525874
     30029.52	0.12786	1630308.0	1284661.0	758975.0	0.238274	0.526281
     30030.04	0.12221	1538968.0	1212596.0	716555.0	0.238349	0.526064
     30030.56	0.12825	1597648.0	1258844.0	744099.0	0.238339	0.525775
     30031.08	0.12803	1633472.0	1287680.0	761199.0	0.237866	0.525703
     30031.60	0.13447	1673281.0	1319020.0	779586.0	0.237897	0.525881
     30032.11	0.13084	1661565.0	1309018.0	773872.0	0.238483	0.525626
     30032.63	0.15191	1920682.0	1514038.0	895136.0	0.237900	0.525560
     30033.15	0.14537	1865212.0	1469695.0	869088.0	0.238320	0.525366
     30033.67	0.088981	1114088.0	878208.0	519521.0	0.237908	0.524976
     30034.19	0.12690	1631360.0	1285642.0	760564.0	0.238156	0.524953
     30034.71	0.13425	1701300.0	1341567.0	793414.0	0.237554	0.525248
     30035.23	0.13303	1663036.0	1310908.0	775533.0	0.237925	0.524925
     30035.75	0.13224	1696300.0	1337299.0	791173.0	0.237798	0.524891
     30036.27	0.12648	1598664.0	1260333.0	745799.0	0.237792	0.524675
     30036.78	0.14549	1853460.0	1461265.0	864768.0	0.237752	0.524597
     30037.30	0.13661	1682652.0	1326698.0	785366.0	0.237678	0.524299
     30037.82	0.11802	1475067.0	1162901.0	688585.0	0.237786	0.524034
     30038.34	0.12815	1627935.0	1283256.0	759329.0	0.237912	0.524721
     30038.86	0.14164	1784038.0	1407042.0	832970.0	0.237390	0.524247
     30039.38	0.12084	1520545.0	1199050.0	710101.0	0.237539	0.523878
     30039.90	0.12121	1523262.0	1201577.0	711366.0	0.237219	0.524203
     30040.42	0.11675	1471087.0	1159603.0	686706.0	0.237924	0.523927
     30040.94	0.13513	1695579.0	1337015.0	791718.0	0.237585	0.523990
     30041.46	0.12570	1569870.0	1237982.0	733286.0	0.237510	0.523702
     30041.98	0.11810	1486342.0	1171919.0	694098.0	0.237675	0.523785
     30042.50	0.12865	1604594.0	1265773.0	749914.0	0.237188	0.523480
     30043.01	0.12927	1604630.0	1265539.0	749618.0	0.237395	0.523690
     30043.53	0.12117	1521846.0	1200159.0	711228.0	0.237470	0.523216
     30044.05	0.12503	1584241.0	1249425.0	740327.0	0.237422	0.523347
     30044.57	0.11517	1445847.0	1140194.0	675749.0	0.237497	0.523132
     30045.09	0.12096	1511942.0	1192886.0	706903.0	0.237019	0.523237
     30045.61	0.13128	1676835.0	1322894.0	783981.0	0.237086	0.523192
     30046.13	0.11709	1489687.0	1175193.0	696572.0	0.237134	0.523017
     30046.65	0.12221	1554608.0	1226069.0	727150.0	0.237410	0.522436
     30047.17	0.12110	1497997.0	1182312.0	700806.0	0.236657	0.522996
     30047.69	0.11639	1466383.0	1156905.0	686136.0	0.237050	0.522428
     30048.21	0.12975	1622249.0	1279901.0	758971.0	0.237031	0.522574
     30048.73	0.11850	1493463.0	1178421.0	698817.0	0.236922	0.522542
     30049.25	0.13335	1658302.0	1308463.0	776028.0	0.236941	0.522420
