# Diamond Light Source
# Instrument: B18-CORE XAS Date: Wed, 27 Jul 2016 23:08:11 BST
# Ring energy:   3.0
# Ring current - start: 298.9
# Primary slits:  vertical gap=  2.4; horizontal gap= 52.0; vertical offset=  0.4; horizontal offset= -1.0
# Secondary slits:  vertical gap=  3.5; horizontal gap= 23.0; vertical offset=  5.3; horizontal offset= -14.5
# OH Mirror Coating: Pt
# White beam filter: 140um PyC
# Crystal cut: Si(311)
# PostDCM slits:  vertical gap= 18.0; horizontal gap= 28.0; vertical offset= -9.1; horizontal offset= -16.5
# Experimental slits:  vertical gap= 28.6; horizontal gap= 45.0; vertical offset=  5.7; horizontal offset= -17.5
# HR Mirror : out; Y: 37.8; Pitch:  0.3; Coating: Pt
# Mirror 2: Pitch:  2.3; Height: -6.4; Yaw: -1.6; Bend:  0.8;
# I0 Stanford sensitivity: 20 nA/V Offsets: 20 pA
# It Stanford sensitivity: 100 nA/V Offsets: 1 pA
# Iref Stanford sensitivity: 20 nA/V Offsets: 1 pA
#
# Ascii output file name: 'Andrea_Sn//ascii/262887_PtSn_OCH_Abu_3.dat'
# Nexus output file: '/dls/b18/data/2016/sp10306-9/Andrea_Sn//nexus/262887_PtSn_OCH_Abu_3.nxs'
# XML folder and files:
# /dls/b18/data/2016/sp10306-9/xml/Andrea_Sn/
# QEXAFS_Parameters
# Sample_Parameters
# Detector_Parameters
# Output_Parameters
# The contents of these files are also stored in the nexus file.
#
# Sample name: PtSn_OCH_Abu
# Sample description: default sample description
# Additional comments: default additional comments
# command: qexafs_energy 29000.0 30050.0 2094 263.53 qexafs_counterTimer01
#
#
# qexafs_energy	   time	       I0	       It	     Iref	  lnI0It	 lnItIref
     29000.24	0.14827	2193359.0	1954104.0	4060301.0	0.115502	-0.731325
     29000.73	0.17598	2657527.0	2367975.0	4920139.0	0.115361	-0.731302
     29001.21	0.13255	1954043.0	1741395.0	3618448.0	0.115214	-0.731359
     29001.69	0.084925	1264501.0	1126992.0	2341659.0	0.115125	-0.731308
     29002.18	0.12186	1825333.0	1627055.0	3379531.0	0.114991	-0.730965
     29002.66	0.13363	2008532.0	1790188.0	3718907.0	0.115083	-0.731109
     29003.14	0.12510	1874473.0	1670109.0	3471103.0	0.115439	-0.731584
     29003.63	0.13333	1986771.0	1770367.0	3677969.0	0.115324	-0.731174
     29004.11	0.12703	1889997.0	1684206.0	3499298.0	0.115281	-0.731268
     29004.59	0.12143	1812211.0	1615506.0	3356804.0	0.114899	-0.731341
     29005.08	0.12345	1858660.0	1656699.0	3441871.0	0.115029	-0.731188
     29005.56	0.12413	1848300.0	1647659.0	3422792.0	0.114911	-0.731101
     29006.05	0.13115	1971724.0	1757609.0	3651907.0	0.114954	-0.731295
     29006.53	0.12550	1883432.0	1678805.0	3487984.0	0.115013	-0.731242
     29007.01	0.12386	1871377.0	1668459.0	3466486.0	0.114774	-0.731241
     29007.50	0.12420	1897116.0	1691214.0	3514053.0	0.114888	-0.731323
     29007.98	0.13143	1965213.0	1752302.0	3641223.0	0.114670	-0.731389
     29008.46	0.12404	1849461.0	1649212.0	3426237.0	0.114597	-0.731165
     29008.95	0.10124	1506070.0	1343099.0	2790939.0	0.114524	-0.731398
     29009.43	0.12477	1845462.0	1645646.0	3419737.0	0.114597	-0.731431
     29009.92	0.12144	1809180.0	1613452.0	3351851.0	0.114498	-0.731137
     29010.40	0.12097	1808775.0	1612907.0	3351230.0	0.114612	-0.731289
     29010.88	0.11549	1715583.0	1529763.0	3178080.0	0.114640	-0.731164
     29011.37	0.14088	2086985.0	1860779.0	3866975.0	0.114725	-0.731477
     29011.85	0.12417	1839918.0	1640776.0	3409055.0	0.114552	-0.731266
     29012.34	0.11803	1740674.0	1552587.0	3225761.0	0.114350	-0.731246
     29012.82	0.13392	1987319.0	1772155.0	3682474.0	0.114590	-0.731388
     29013.30	0.12741	1871504.0	1669120.0	3467733.0	0.114446	-0.731205
     29013.79	0.12425	1864026.0	1662328.0	3454233.0	0.114520	-0.731381
     29014.27	0.13370	2029488.0	1810230.0	3760640.0	0.114330	-0.731135
     29014.76	0.13337	1995897.0	1779782.0	3698406.0	0.114603	-0.731411
     29015.24	0.12594	1912312.0	1705689.0	3542725.0	0.114344	-0.730927
     29015.72	0.11077	1649549.0	1471433.0	3057499.0	0.114265	-0.731361
     29016.21	0.13510	2026119.0	1806695.0	3754279.0	0.114623	-0.731397
     29016.69	0.11546	1761918.0	1571745.0	3265875.0	0.114217	-0.731341
     29017.18	0.12800	1924542.0	1716532.0	3567016.0	0.114382	-0.731423
     29017.66	0.12109	1776222.0	1584306.0	3291922.0	0.114342	-0.731325
     29018.14	0.13418	2018194.0	1799736.0	3739281.0	0.114563	-0.731253
     29018.63	0.12651	1902821.0	1697382.0	3526733.0	0.114250	-0.731285
     29019.11	0.13715	2038548.0	1818409.0	3778980.0	0.114276	-0.731492
     29019.60	0.12931	1950664.0	1740034.0	3616066.0	0.114265	-0.731482
     29020.08	0.12310	1825506.0	1628569.0	3384570.0	0.114155	-0.731525
     29020.57	0.13013	1946894.0	1736959.0	3608697.0	0.114099	-0.731211
     29021.05	0.12880	1920943.0	1714271.0	3562170.0	0.113828	-0.731382
     29021.53	0.11843	1797880.0	1603300.0	3330968.0	0.114544	-0.731199
     29022.02	0.12488	1846784.0	1647881.0	3424438.0	0.113956	-0.731447
     29022.50	0.13945	2103433.0	1876953.0	3899142.0	0.113921	-0.731107
     29022.99	0.12998	1952598.0	1742634.0	3620502.0	0.113763	-0.731215
     29023.47	0.14192	2146800.0	1915424.0	3979048.0	0.114039	-0.731104
     29023.96	0.11093	1674619.0	1493883.0	3103854.0	0.114207	-0.731266
     29024.44	0.10716	1608491.0	1435008.0	2981574.0	0.114126	-0.731281
     29024.92	0.11828	1780350.0	1589013.0	3301055.0	0.113697	-0.731129
     29025.41	0.12308	1829439.0	1632245.0	3391256.0	0.114053	-0.731244
     29025.89	0.12534	1880422.0	1678160.0	3486556.0	0.113798	-0.731216
     29026.38	0.12218	1850860.0	1651732.0	3432426.0	0.113826	-0.731443
     29026.86	0.12449	1882188.0	1679924.0	3490516.0	0.113686	-0.731301
     29027.35	0.12033	1824609.0	1628208.0	3383031.0	0.113886	-0.731292
     29027.83	0.096241	1435600.0	1281351.0	2661453.0	0.113668	-0.730957
     29028.32	0.10901	1658310.0	1480447.0	3075677.0	0.113455	-0.731181
     29028.80	0.11097	1709587.0	1526184.0	3170841.0	0.113481	-0.731226
     29029.28	0.12559	1885007.0	1682515.0	3495876.0	0.113642	-0.731294
     29029.77	0.13374	2036411.0	1816973.0	3775668.0	0.114017	-0.731405
     29030.25	0.13602	2108433.0	1882251.0	3909848.0	0.113477	-0.731030
     29030.74	0.13441	2042469.0	1823265.0	3788311.0	0.113531	-0.731291
     29031.22	0.12301	1866502.0	1666662.0	3463002.0	0.113243	-0.731313
     29031.71	0.11742	1798008.0	1605131.0	3334619.0	0.113474	-0.731153
     29032.19	0.12014	1833599.0	1636796.0	3401236.0	0.113540	-0.731398
     29032.68	0.12565	1911460.0	1706256.0	3544919.0	0.113566	-0.731214
     29033.16	0.13568	2052959.0	1832545.0	3807999.0	0.113576	-0.731398
     29033.65	0.15156	2312935.0	2064743.0	4290061.0	0.113512	-0.731295
     29034.13	0.13413	2040556.0	1822235.0	3785322.0	0.113159	-0.731067
     29034.62	0.14870	2279834.0	2035212.0	4229243.0	0.113503	-0.731423
     29035.10	0.085256	1293596.0	1155221.0	2399984.0	0.113134	-0.731170
     29035.58	0.12426	1910151.0	1705829.0	3543551.0	0.113131	-0.731078
     29036.07	0.13704	2131214.0	1903105.0	3953834.0	0.113205	-0.731199
     29036.55	0.12360	1904215.0	1700153.0	3531898.0	0.113352	-0.731117
     29037.04	0.13780	2109389.0	1884049.0	3914718.0	0.112975	-0.731320
     29037.52	0.12975	1983999.0	1771833.0	3681601.0	0.113100	-0.731333
     29038.01	0.12925	1971673.0	1760538.0	3656803.0	0.113263	-0.730970
     29038.49	0.14975	2294236.0	2048400.0	4255313.0	0.113341	-0.731109
     29038.98	0.12469	1886923.0	1685230.0	3500943.0	0.113045	-0.731130
     29039.46	0.13280	2045268.0	1826887.0	3795017.0	0.112915	-0.731075
     29039.95	0.12290	1880557.0	1679087.0	3487873.0	0.113318	-0.731042
     29040.43	0.12992	2000203.0	1786209.0	3710615.0	0.113153	-0.731102
     29040.92	0.13419	2087539.0	1864412.0	3873177.0	0.113040	-0.731129
     29041.40	0.11745	1787317.0	1596396.0	3315904.0	0.112967	-0.730982
     29041.89	0.13048	2030161.0	1813633.0	3766531.0	0.112783	-0.730822
     29042.37	0.12408	1924397.0	1718805.0	3569833.0	0.112983	-0.730890
     29042.86	0.12702	1923079.0	1718044.0	3568496.0	0.112741	-0.730958
     29043.34	0.12041	1843008.0	1646413.0	3420069.0	0.112800	-0.731062
     29043.83	0.12716	1923539.0	1718643.0	3570598.0	0.112632	-0.731198
     29044.31	0.13305	2042106.0	1824237.0	3789033.0	0.112820	-0.730949
     29044.80	0.12092	1845354.0	1648192.0	3423156.0	0.112992	-0.730884
     29045.28	0.12250	1865442.0	1666599.0	3462427.0	0.112713	-0.731185
     29045.77	0.11964	1793367.0	1602391.0	3327995.0	0.112598	-0.730873
     29046.25	0.11534	1728410.0	1543993.0	3207684.0	0.112830	-0.731177
     29046.74	0.11902	1806891.0	1613990.0	3352129.0	0.112898	-0.730886
     29047.22	0.12245	1854351.0	1656978.0	3441306.0	0.112539	-0.730856
     29047.71	0.12545	1891293.0	1690070.0	3510258.0	0.112491	-0.730920
     29048.19	0.12265	1843627.0	1647624.0	3422466.0	0.112401	-0.731027
     29048.68	0.11751	1755848.0	1568539.0	3258496.0	0.112807	-0.731121
     29049.16	0.12958	1958153.0	1749791.0	3633582.0	0.112505	-0.730723
     29049.65	0.13052	1948576.0	1741245.0	3616503.0	0.112498	-0.730907
     29050.13	0.12402	1860312.0	1662423.0	3452666.0	0.112468	-0.730871
     29050.62	0.12942	1930277.0	1725120.0	3583066.0	0.112367	-0.730922
     29051.10	0.13498	2023123.0	1807708.0	3754208.0	0.112583	-0.730818
     29051.59	0.12827	1918060.0	1714198.0	3559760.0	0.112369	-0.730748
     29052.08	0.12456	1858140.0	1660500.0	3448441.0	0.112457	-0.730803
     29052.56	0.12951	1923517.0	1719238.0	3571119.0	0.112274	-0.730998
     29053.05	0.11190	1670720.0	1493122.0	3100115.0	0.112385	-0.730570
     29053.53	0.12135	1793504.0	1603163.0	3328979.0	0.112193	-0.730687
     29054.02	0.13625	2021695.0	1806573.0	3750808.0	0.112505	-0.730540
     29054.50	0.12118	1800091.0	1609133.0	3340844.0	0.112142	-0.730528
     29054.99	0.12563	1872276.0	1672866.0	3474141.0	0.112616	-0.730809
     29055.47	0.12652	1880755.0	1680796.0	3490045.0	0.112406	-0.730647
     29055.96	0.12307	1878483.0	1678854.0	3484715.0	0.112353	-0.730275
     29056.44	0.14392	2168945.0	1938425.0	4024655.0	0.112365	-0.730563
     29056.93	0.12550	1863798.0	1666106.0	3459646.0	0.112127	-0.730677
     29057.41	0.12357	1818871.0	1626041.0	3376493.0	0.112068	-0.730689
     29057.90	0.12838	1898411.0	1696902.0	3523042.0	0.112213	-0.730521
     29058.39	0.12941	1911788.0	1708816.0	3547516.0	0.112238	-0.730447
     29058.87	0.13079	1925213.0	1720940.0	3572706.0	0.112166	-0.730453
     29059.36	0.13100	1982257.0	1772156.0	3678838.0	0.112039	-0.730400
     29059.84	0.12532	1838567.0	1644063.0	3413230.0	0.111816	-0.730488
     29060.33	0.14101	2082247.0	1861682.0	3865404.0	0.111967	-0.730586
     29060.81	0.11505	1684061.0	1505634.0	3125657.0	0.111994	-0.730430
     29061.30	0.11290	1676401.0	1498960.0	3111466.0	0.111878	-0.730322
     29061.78	0.12257	1796591.0	1606019.0	3334410.0	0.112133	-0.730537
     29062.27	0.12059	1796097.0	1605959.0	3333080.0	0.111895	-0.730176
     29062.76	0.13456	1977056.0	1767601.0	3669130.0	0.111986	-0.730331
     29063.24	0.11415	1678804.0	1500916.0	3115964.0	0.112006	-0.730463
     29063.73	0.13175	1970537.0	1762071.0	3657214.0	0.111816	-0.730212
     29064.21	0.15548	2276959.0	2036089.0	4225282.0	0.111810	-0.730055
     29064.70	0.091240	1342488.0	1200143.0	2491417.0	0.112084	-0.730411
     29065.18	0.10998	1625285.0	1453246.0	3017104.0	0.111884	-0.730498
     29065.67	0.086886	1298115.0	1160775.0	2409682.0	0.111825	-0.730407
     29066.16	0.11747	1747038.0	1561737.0	3241151.0	0.112123	-0.730130
     29066.64	0.11668	1749671.0	1564547.0	3247883.0	0.111831	-0.730407
     29067.13	0.11831	1763658.0	1577709.0	3273896.0	0.111416	-0.730007
     29067.61	0.12937	1947963.0	1742313.0	3615501.0	0.111571	-0.730017
     29068.10	0.18744	2770984.0	2477794.0	5142077.0	0.111834	-0.730088
     29068.59	0.083222	1252754.0	1120302.0	2324841.0	0.111746	-0.730053
     29069.07	0.11416	1721354.0	1539696.0	3194882.0	0.111526	-0.729965
     29069.56	0.11410	1671405.0	1494792.0	3101869.0	0.111678	-0.730018
     29070.04	0.13478	2023635.0	1810367.0	3756010.0	0.111366	-0.729828
     29070.53	0.14110	2109603.0	1886835.0	3914355.0	0.111599	-0.729750
     29071.01	0.12890	1981943.0	1772932.0	3677595.0	0.111443	-0.729624
     29071.50	0.16404	2474523.0	2213571.0	4592496.0	0.111441	-0.729817
     29071.99	0.15384	2323333.0	2078743.0	4311464.0	0.111239	-0.729514
     29072.47	0.076073	1104235.0	987638.0	2049349.0	0.111592	-0.729961
     29072.96	0.12146	1803822.0	1613783.0	3347346.0	0.111327	-0.729587
     29073.44	0.12447	1876972.0	1679011.0	3482059.0	0.111455	-0.729419
     29073.93	0.13017	1946072.0	1741129.0	3611281.0	0.111279	-0.729529
     29074.42	0.13280	1995847.0	1785712.0	3703926.0	0.111251	-0.729576
     29074.90	0.13811	2074357.0	1855688.0	3849227.0	0.111396	-0.729617
     29075.39	0.14819	2203530.0	1971509.0	4088587.0	0.111261	-0.729400
     29075.87	0.16104	2434108.0	2178073.0	4517151.0	0.111140	-0.729441
     29076.36	0.10332	1530383.0	1369218.0	2839785.0	0.111278	-0.729489
     29076.85	0.12577	1856382.0	1660913.0	3444349.0	0.111262	-0.729367
     29077.33	0.11663	1730123.0	1548591.0	3210418.0	0.110847	-0.729056
     29077.82	0.13720	2058906.0	1842218.0	3820013.0	0.111204	-0.729284
     29078.31	0.13001	1932149.0	1729069.0	3584312.0	0.111050	-0.728983
     29078.79	0.13475	1993391.0	1783533.0	3698220.0	0.111241	-0.729255
     29079.28	0.15360	2297642.0	2056054.0	4261741.0	0.111095	-0.728889
     29079.76	0.096513	1434658.0	1283834.0	2661397.0	0.111076	-0.729000
     29080.25	0.11608	1734568.0	1552327.0	3217322.0	0.111003	-0.728794
     29080.74	0.12420	1837417.0	1644520.0	3408569.0	0.110912	-0.728844
     29081.22	0.12311	1821468.0	1630364.0	3378896.0	0.110839	-0.728746
     29081.71	0.12717	1885071.0	1687187.0	3495974.0	0.110903	-0.728549
     29082.20	0.12754	1856198.0	1660789.0	3441974.0	0.111238	-0.728752
     29082.68	0.12547	1841257.0	1648555.0	3415447.0	0.110549	-0.728409
     29083.17	0.12760	1894116.0	1695085.0	3512487.0	0.111019	-0.728591
     29083.65	0.12065	1779096.0	1592039.0	3299312.0	0.111090	-0.728698
     29084.14	0.11956	1730217.0	1548332.0	3207557.0	0.111069	-0.728331
     29084.63	0.12016	1777646.0	1591006.0	3296421.0	0.110923	-0.728471
     29085.11	0.11986	1774749.0	1588611.0	3289627.0	0.110799	-0.727914
     29085.60	0.12810	1907950.0	1707906.0	3537326.0	0.110761	-0.728103
     29086.09	0.11463	1709756.0	1530294.0	3170127.0	0.110891	-0.728312
     29086.57	0.12828	1897715.0	1698847.0	3518800.0	0.110701	-0.728170
     29087.06	0.12870	1912992.0	1712392.0	3547419.0	0.110777	-0.728329
     29087.55	0.11811	1741462.0	1559220.0	3228057.0	0.110539	-0.727695
     29088.03	0.13252	1956348.0	1751375.0	3626915.0	0.110678	-0.727981
     29088.52	0.12717	1855466.0	1661267.0	3440039.0	0.110555	-0.727902
     29089.01	0.13368	1975713.0	1768965.0	3661704.0	0.110535	-0.727534
     29089.49	0.12273	1811574.0	1622220.0	3359256.0	0.110400	-0.727924
     29089.98	0.12701	1865366.0	1670706.0	3457740.0	0.110211	-0.727369
     29090.47	0.13177	1931604.0	1729887.0	3579902.0	0.110295	-0.727279
     29090.95	0.12547	1845717.0	1652859.0	3420935.0	0.110361	-0.727407
     29091.44	0.12192	1825521.0	1634577.0	3382599.0	0.110481	-0.727260
     29091.93	0.11792	1726964.0	1546310.0	3200626.0	0.110494	-0.727475
     29092.41	0.12765	1904824.0	1705578.0	3528471.0	0.110486	-0.726961
     29092.90	0.12307	1802126.0	1613332.0	3339008.0	0.110665	-0.727372
     29093.39	0.12866	1882319.0	1685388.0	3487001.0	0.110509	-0.727046
     29093.87	0.12501	1875896.0	1679806.0	3475607.0	0.110408	-0.727091
     29094.36	0.13223	1962164.0	1757146.0	3634348.0	0.110357	-0.726739
     29094.85	0.14195	2099524.0	1880368.0	3889697.0	0.110243	-0.726864
     29095.33	0.12174	1791559.0	1604972.0	3318423.0	0.109980	-0.726383
     29095.82	0.12939	1937550.0	1735269.0	3588253.0	0.110262	-0.726503
     29096.31	0.12943	1911660.0	1711895.0	3539917.0	0.110371	-0.726502
     29096.79	0.12606	1857024.0	1663141.0	3437619.0	0.110267	-0.726071
     29097.28	0.12488	1845167.0	1652629.0	3416883.0	0.110202	-0.726361
     29097.77	0.14709	2186786.0	1959052.0	4049687.0	0.109972	-0.726179
     29098.25	0.11955	1763706.0	1579880.0	3265540.0	0.110068	-0.726076
     29098.74	0.11903	1790757.0	1604288.0	3314090.0	0.109958	-0.725503
     29099.23	0.12316	1855693.0	1662222.0	3435029.0	0.110103	-0.725870
     29099.71	0.11732	1744642.0	1562575.0	3228773.0	0.110214	-0.725767
     29100.20	0.12036	1765814.0	1581700.0	3267894.0	0.110112	-0.725646
     29100.69	0.12683	1903738.0	1705580.0	3522910.0	0.109914	-0.725382
     29101.17	0.11575	1686167.0	1510463.0	3120279.0	0.110042	-0.725506
     29101.66	0.13808	2011723.0	1802261.0	3722980.0	0.109950	-0.725482
     29102.15	0.10682	1577325.0	1412786.0	2917641.0	0.110167	-0.725212
     29102.64	0.12444	1833409.0	1642809.0	3392478.0	0.109769	-0.725153
     29103.12	0.10542	1547353.0	1386624.0	2862289.0	0.109674	-0.724750
     29103.61	0.11674	1726673.0	1546854.0	3193311.0	0.109973	-0.724835
     29104.10	0.10217	1495063.0	1339373.0	2764112.0	0.109967	-0.724518
     29104.58	0.12751	1867781.0	1673535.0	3454050.0	0.109813	-0.724609
     29105.07	0.11605	1733306.0	1553010.0	3203840.0	0.109836	-0.724155
     29105.56	0.13332	1952697.0	1749181.0	3608915.0	0.110064	-0.724259
     29106.04	0.12211	1804501.0	1616908.0	3335139.0	0.109768	-0.723999
     29106.53	0.12543	1830252.0	1639562.0	3382263.0	0.110025	-0.724116
     29107.02	0.12277	1792014.0	1605688.0	3311422.0	0.109788	-0.723825
     29107.51	0.11983	1747144.0	1565487.0	3227797.0	0.109785	-0.723603
     29107.99	0.11750	1724463.0	1544513.0	3185086.0	0.110207	-0.723771
     29108.48	0.14825	2206642.0	1977450.0	4075828.0	0.109664	-0.723266
     29108.97	0.12767	1898529.0	1701673.0	3507107.0	0.109467	-0.723180
     29109.46	0.13348	1954736.0	1751867.0	3609818.0	0.109573	-0.722975
     29109.94	0.13708	1984045.0	1777846.0	3663211.0	0.109735	-0.722938
     29110.43	0.12651	1857224.0	1664631.0	3429442.0	0.109479	-0.722794
     29110.92	0.12145	1814072.0	1625338.0	3348451.0	0.109858	-0.722782
     29111.40	0.11389	1665164.0	1492565.0	3072907.0	0.109428	-0.722128
     29111.89	0.14060	2089032.0	1872361.0	3854499.0	0.109501	-0.722041
     29112.38	0.12671	1882738.0	1687188.0	3473361.0	0.109664	-0.722059
     29112.87	0.13553	2024966.0	1814926.0	3736095.0	0.109508	-0.721996
     29113.35	0.13816	2006884.0	1798715.0	3701248.0	0.109511	-0.721598
     29113.84	0.12712	1859100.0	1666188.0	3427888.0	0.109554	-0.721406
     29114.33	0.14639	2137824.0	1915898.0	3941428.0	0.109602	-0.721357
     29114.82	0.12302	1797707.0	1611101.0	3313441.0	0.109594	-0.721069
     29115.30	0.12871	1880092.0	1685176.0	3464261.0	0.109451	-0.720629
     29115.79	0.12918	1884941.0	1689523.0	3473347.0	0.109450	-0.720672
     29116.28	0.14534	2115915.0	1896427.0	3897804.0	0.109516	-0.720442
     29116.77	0.13466	1969464.0	1765122.0	3627848.0	0.109542	-0.720420
     29117.25	0.14584	2156359.0	1932660.0	3969802.0	0.109524	-0.719819
     29117.74	0.11428	1692892.0	1517398.0	3116345.0	0.109441	-0.719664
     29118.23	0.11822	1723310.0	1544834.0	3172070.0	0.109330	-0.719468
     29118.72	0.12682	1876685.0	1682227.0	3453139.0	0.109388	-0.719165
     29119.20	0.12407	1816466.0	1627943.0	3341590.0	0.109576	-0.719129
     29119.69	0.11772	1723080.0	1544403.0	3169859.0	0.109476	-0.719050
     29120.18	0.13025	1907208.0	1709744.0	3507352.0	0.109297	-0.718518
     29120.67	0.12196	1794685.0	1609266.0	3299536.0	0.109051	-0.718004
     29121.15	0.12735	1858927.0	1666212.0	3416440.0	0.109447	-0.718046
     29121.64	0.11467	1672703.0	1499662.0	3073805.0	0.109201	-0.717676
     29122.13	0.12708	1874857.0	1681095.0	3445130.0	0.109087	-0.717516
     29122.62	0.11844	1723813.0	1545742.0	3165885.0	0.109035	-0.716929
     29123.10	0.11710	1730158.0	1551372.0	3177854.0	0.109073	-0.717066
     29123.59	0.11943	1753965.0	1572574.0	3219956.0	0.109165	-0.716654
     29124.08	0.12158	1791098.0	1605669.0	3287806.0	0.109288	-0.716680
     29124.57	0.12370	1823668.0	1635139.0	3346017.0	0.109122	-0.716043
     29125.06	0.11660	1703144.0	1526822.0	3122825.0	0.109288	-0.715550
     29125.54	0.12527	1845195.0	1654097.0	3382817.0	0.109330	-0.715454
     29126.03	0.12197	1807638.0	1620997.0	3313724.0	0.108980	-0.715031
     29126.52	0.12469	1849133.0	1658291.0	3388689.0	0.108929	-0.714656
     29127.01	0.13647	1999221.0	1792334.0	3663175.0	0.109239	-0.714812
     29127.49	0.11969	1759896.0	1578127.0	3222963.0	0.109016	-0.714062
     29127.98	0.12659	1838391.0	1648384.0	3365178.0	0.109095	-0.713685
     29128.47	0.13815	2027939.0	1818521.0	3711209.0	0.108996	-0.713334
     29128.96	0.12675	1844397.0	1653468.0	3374068.0	0.109277	-0.713244
     29129.45	0.12891	1894636.0	1699466.0	3465393.0	0.108713	-0.712512
     29129.93	0.12947	1921127.0	1722815.0	3512136.0	0.108952	-0.712265
     29130.42	0.11965	1757168.0	1575756.0	3211205.0	0.108968	-0.711911
     29130.91	0.11951	1737741.0	1558218.0	3173523.0	0.109043	-0.711299
     29131.40	0.12363	1794824.0	1609428.0	3276751.0	0.109028	-0.710974
     29131.89	0.12392	1833954.0	1644590.0	3346790.0	0.108983	-0.710511
     29132.37	0.12918	1919454.0	1721301.0	3502035.0	0.108960	-0.710264
     29132.86	0.12567	1887839.0	1693050.0	3442373.0	0.108901	-0.709629
     29133.35	0.12869	1889789.0	1694595.0	3444572.0	0.109021	-0.709356
     29133.84	0.14208	2085056.0	1869969.0	3799962.0	0.108874	-0.709069
     29134.33	0.10640	1541436.0	1382530.0	2807068.0	0.108799	-0.708225
     29134.81	0.13776	2028658.0	1819238.0	3693335.0	0.108957	-0.708112
     29135.30	0.13182	1947682.0	1747124.0	3543632.0	0.108669	-0.707181
     29135.79	0.12166	1784503.0	1600078.0	3244635.0	0.109088	-0.706950
     29136.28	0.13124	1942079.0	1741748.0	3531281.0	0.108870	-0.706771
     29136.77	0.13165	1950437.0	1749422.0	3543998.0	0.108768	-0.705970
     29137.25	0.13902	2028832.0	1819341.0	3683902.0	0.108986	-0.705498
     29137.74	0.11601	1699296.0	1524031.0	3084042.0	0.108855	-0.704882
     29138.23	0.12819	1913435.0	1716055.0	3471227.0	0.108872	-0.704480
     29138.72	0.12181	1755953.0	1574369.0	3183945.0	0.109157	-0.704266
     29139.21	0.11676	1714264.0	1537430.0	3105479.0	0.108872	-0.703056
     29139.70	0.11962	1778153.0	1594428.0	3219999.0	0.109060	-0.702866
     29140.18	0.13047	1919194.0	1721370.0	3473037.0	0.108785	-0.701909
     29140.67	0.12292	1824333.0	1635783.0	3299863.0	0.109093	-0.701759
     29141.16	0.12357	1845340.0	1655222.0	3336445.0	0.108728	-0.700971
     29141.65	0.11695	1716846.0	1540334.0	3102622.0	0.108490	-0.700248
     29142.14	0.11871	1749238.0	1568772.0	3158118.0	0.108887	-0.699683
     29142.63	0.11019	1605810.0	1440181.0	2896823.0	0.108860	-0.698846
     29143.11	0.11915	1754086.0	1573502.0	3162629.0	0.108644	-0.698100
     29143.60	0.11061	1601305.0	1436050.0	2885343.0	0.108923	-0.697747
     29144.09	0.12137	1756741.0	1575246.0	3162049.0	0.109049	-0.696809
     29144.58	0.11240	1654062.0	1483506.0	2975144.0	0.108826	-0.695884
     29145.07	0.11862	1733018.0	1554554.0	3116021.0	0.108676	-0.695368
     29145.56	0.12122	1779626.0	1595828.0	3196109.0	0.109011	-0.694541
     29146.04	0.12704	1886000.0	1691529.0	3384365.0	0.108825	-0.693533
     29146.53	0.12954	1926056.0	1727420.0	3453027.0	0.108845	-0.692622
     29147.02	0.12625	1863174.0	1671338.0	3339615.0	0.108657	-0.692231
     29147.51	0.11939	1739103.0	1559402.0	3112519.0	0.109067	-0.691130
     29148.00	0.13586	2002040.0	1795073.0	3579483.0	0.109121	-0.690173
     29148.49	0.12854	1898395.0	1702827.0	3391956.0	0.108719	-0.689117
     29148.98	0.13855	2034408.0	1824465.0	3631050.0	0.108918	-0.688235
     29149.46	0.11707	1726900.0	1548780.0	3078517.0	0.108860	-0.686980
     29149.95	0.16779	2484605.0	2228089.0	4425228.0	0.108969	-0.686178
     29150.44	0.10527	1551600.0	1391343.0	2761207.0	0.109017	-0.685398
     29150.93	0.11279	1697544.0	1522126.0	3016725.0	0.109074	-0.684064
     29151.42	0.13705	2004828.0	1797693.0	3558815.0	0.109054	-0.682923
     29151.91	0.12863	1896603.0	1700829.0	3364507.0	0.108949	-0.682166
     29152.40	0.13802	2054567.0	1842650.0	3639230.0	0.108860	-0.680567
     29152.88	0.12705	1892233.0	1696753.0	3347490.0	0.109041	-0.679494
     29153.37	0.13046	1925592.0	1726299.0	3401674.0	0.109254	-0.678288
     29153.86	0.16239	2390514.0	2142984.0	4217233.0	0.109309	-0.676980
     29154.35	0.11008	1619062.0	1451551.0	2852877.0	0.109214	-0.675695
     29154.84	0.12409	1825495.0	1636530.0	3211598.0	0.109273	-0.674190
     29155.33	0.12828	1883626.0	1689203.0	3309312.0	0.108942	-0.672483
     29155.82	0.13259	1923379.0	1724006.0	3372654.0	0.109433	-0.671049
     29156.31	0.12705	1864136.0	1670850.0	3264492.0	0.109465	-0.669772
     29156.79	0.13835	2039826.0	1828491.0	3566322.0	0.109373	-0.668044
     29157.28	0.12560	1818818.0	1630175.0	3174197.0	0.109499	-0.666367
     29157.77	0.13179	1954589.0	1751945.0	3406283.0	0.109453	-0.664895
     29158.26	0.13449	1967878.0	1764133.0	3423525.0	0.109296	-0.663011
     29158.75	0.11215	1635266.0	1465773.0	2838906.0	0.109423	-0.661036
     29159.24	0.12699	1888814.0	1692997.0	3272858.0	0.109449	-0.659163
     29159.73	0.11833	1754956.0	1572616.0	3033690.0	0.109703	-0.657039
     29160.22	0.13233	1932957.0	1732598.0	3335305.0	0.109429	-0.654942
     29160.71	0.12804	1892882.0	1696566.0	3259113.0	0.109494	-0.652849
     29161.19	0.13277	1957300.0	1754577.0	3362440.0	0.109338	-0.650439
     29161.68	0.11503	1684304.0	1509547.0	2886479.0	0.109543	-0.648228
     29162.17	0.13168	1942203.0	1740232.0	3319431.0	0.109804	-0.645775
     29162.66	0.12971	1883897.0	1687970.0	3210989.0	0.109816	-0.643052
     29163.15	0.11468	1671743.0	1497778.0	2840739.0	0.109884	-0.640082
     29163.64	0.12168	1787626.0	1601305.0	3028612.0	0.110070	-0.637286
     29164.13	0.12584	1853534.0	1660105.0	3130252.0	0.110213	-0.634233
     29164.62	0.12586	1835052.0	1643779.0	3089459.0	0.110075	-0.630998
     29165.11	0.12154	1771053.0	1585774.0	2971933.0	0.110502	-0.628140
     29165.60	0.11384	1664451.0	1490525.0	2783187.0	0.110367	-0.624468
     29166.09	0.12006	1761920.0	1577542.0	2934982.0	0.110536	-0.620833
     29166.57	0.13356	1929386.0	1727674.0	3201406.0	0.110426	-0.616814
     29167.06	0.12219	1779113.0	1592644.0	2939363.0	0.110719	-0.612797
     29167.55	0.13023	1887053.0	1689232.0	3104254.0	0.110742	-0.608499
     29168.04	0.13361	1948517.0	1743514.0	3187797.0	0.111166	-0.603427
     29168.53	0.13189	1921905.0	1719584.0	3129517.0	0.111234	-0.598796
     29169.02	0.12618	1845699.0	1651651.0	2990753.0	0.111083	-0.593750
     29169.51	0.12940	1891379.0	1692051.0	3046965.0	0.111365	-0.588205
     29170.00	0.10843	1598454.0	1429855.0	2559906.0	0.111464	-0.582397
     29170.49	0.12754	1870352.0	1672386.0	2975055.0	0.111875	-0.576011
     29170.98	0.11923	1745301.0	1560617.0	2757863.0	0.111846	-0.569375
     29171.47	0.12946	1896371.0	1695571.0	2972733.0	0.111923	-0.561462
     29171.96	0.13036	1912302.0	1709577.0	2974955.0	0.112062	-0.553983
     29172.45	0.12517	1826851.0	1632749.0	2816914.0	0.112329	-0.545377
     29172.94	0.11371	1657090.0	1479916.0	2531286.0	0.113078	-0.536742
     29173.42	0.13830	2010105.0	1795143.0	3041615.0	0.113102	-0.527304
     29173.91	0.12710	1823535.0	1627976.0	2726560.0	0.113439	-0.515703
     29174.40	0.13220	1902088.0	1697887.0	2811745.0	0.113568	-0.504421
     29174.89	0.13165	1906805.0	1701495.0	2781963.0	0.113922	-0.491650
     29175.38	0.12789	1871815.0	1669991.0	2693928.0	0.114090	-0.478182
     29175.87	0.12710	1862766.0	1660857.0	2640979.0	0.114729	-0.463816
     29176.36	0.12799	1848832.0	1647915.0	2577455.0	0.115043	-0.447292
     29176.85	0.12813	1888060.0	1682200.0	2584769.0	0.115447	-0.429534
     29177.34	0.13302	1923230.0	1712545.0	2579809.0	0.116025	-0.409735
     29177.83	0.11817	1711738.0	1522938.0	2243246.0	0.116868	-0.387283
     29178.32	0.12371	1799627.0	1600390.0	2299581.0	0.117332	-0.362480
     29178.81	0.11568	1674136.0	1487580.0	2079941.0	0.118147	-0.335189
     29179.30	0.12391	1759380.0	1562434.0	2113585.0	0.118717	-0.302141
     29179.79	0.12681	1813576.0	1609423.0	2105144.0	0.119425	-0.268508
     29180.28	0.13569	1934636.0	1714212.0	2155679.0	0.120966	-0.229152
     29180.77	0.11494	1647526.0	1458701.0	1754941.0	0.121728	-0.184889
     29181.26	0.12445	1809082.0	1600141.0	1842905.0	0.122728	-0.141251
     29181.75	0.10393	1491508.0	1317406.0	1431716.0	0.124123	-0.0832091
     29182.24	0.11111	1575892.0	1389549.0	1420777.0	0.125842	-0.0222247
     29182.73	0.11344	1624251.0	1430168.0	1373300.0	0.127255	0.0405753
     29183.22	0.11579	1699394.0	1493830.0	1343208.0	0.128928	0.106283
     29183.71	0.12444	1804232.0	1582636.0	1315825.0	0.131043	0.184628
     29184.20	0.11594	1692724.0	1480754.0	1139778.0	0.133788	0.261718
     29184.68	0.12366	1802540.0	1573586.0	1120901.0	0.135840	0.339224
     29185.17	0.12423	1799085.0	1566397.0	1026771.0	0.138500	0.422359
     29185.66	0.11780	1707843.0	1483301.0	899300.0	0.140961	0.500409
     29186.15	0.12384	1765007.0	1527631.0	859539.0	0.144436	0.575077
     29186.64	0.12544	1759626.0	1518532.0	798936.0	0.147357	0.642219
     29187.13	0.14145	2027995.0	1744996.0	861758.0	0.150295	0.705533
     29187.62	0.11894	1748929.0	1500713.0	704137.0	0.153063	0.756723
     29188.11	0.13222	1891795.0	1617591.0	724499.0	0.156588	0.803213
     29188.60	0.14354	2101116.0	1791262.0	774287.0	0.159548	0.838733
     29189.09	0.11573	1696348.0	1441585.0	607299.0	0.162735	0.864477
     29189.58	0.13301	1934568.0	1638855.0	679037.0	0.165886	0.881077
     29190.07	0.11607	1709685.0	1443504.0	593049.0	0.169236	0.889552
     29190.56	0.13974	2022510.0	1702743.0	699264.0	0.172099	0.889967
     29191.05	0.12092	1783653.0	1498180.0	617565.0	0.174412	0.886222
     29191.54	0.14129	2084559.0	1747330.0	727594.0	0.176468	0.876101
     29192.03	0.12799	1886732.0	1578094.0	665874.0	0.178628	0.862873
     29192.52	0.13373	1951687.0	1630281.0	698830.0	0.179942	0.847100
     29193.01	0.12645	1848420.0	1542063.0	672031.0	0.181210	0.830572
     29193.50	0.13699	1993817.0	1662324.0	737320.0	0.181834	0.812950
     29193.99	0.13153	1901640.0	1584933.0	715594.0	0.182175	0.795184
     29194.48	0.13729	2007484.0	1673855.0	768293.0	0.181753	0.778713
     29194.97	0.12996	1873500.0	1562459.0	728775.0	0.181547	0.762651
     29195.46	0.12796	1869608.0	1560446.0	737732.0	0.180757	0.749146
     29195.95	0.13265	1944972.0	1625768.0	779097.0	0.179267	0.735600
     29196.44	0.12484	1821347.0	1524563.0	739317.0	0.177869	0.723736
     29196.93	0.12319	1798922.0	1507621.0	739333.0	0.176655	0.712540
     29197.42	0.12832	1854830.0	1556533.0	770700.0	0.175332	0.702917
     29197.92	0.12347	1807416.0	1519242.0	758362.0	0.173687	0.694806
     29198.41	0.12514	1827030.0	1538501.0	773530.0	0.171883	0.687599
     29198.90	0.13313	1937493.0	1633798.0	826430.0	0.170488	0.681547
     29199.39	0.12426	1828448.0	1543996.0	784293.0	0.169094	0.677346
     29199.88	0.12001	1737542.0	1469173.0	749805.0	0.167772	0.672642
     29200.37	0.12351	1772740.0	1501220.0	768544.0	0.166248	0.669536
     29200.86	0.12394	1788342.0	1515971.0	777469.0	0.165233	0.667768
     29201.35	0.12341	1789214.0	1518147.0	779599.0	0.164286	0.666466
     29201.84	0.11781	1739904.0	1477871.0	758663.0	0.163227	0.666800
     29202.33	0.12755	1865503.0	1586098.0	814401.0	0.162254	0.666579
     29202.82	0.11675	1670671.0	1421442.0	729179.0	0.161553	0.667508
     29203.31	0.13079	1852813.0	1577216.0	807674.0	0.161044	0.669258
     29203.80	0.10542	1486385.0	1266374.0	647175.0	0.160189	0.671296
     29204.29	0.12659	1798985.0	1533555.0	781764.0	0.159634	0.673791
     29204.78	0.12567	1841783.0	1570558.0	798560.0	0.159303	0.676376
     29205.27	0.12184	1773074.0	1513153.0	766863.0	0.158519	0.679643
     29205.76	0.12055	1720378.0	1468343.0	741234.0	0.158409	0.683573
     29206.25	0.13889	2011714.0	1717525.0	864363.0	0.158103	0.686647
     29206.74	0.11520	1629585.0	1391740.0	698088.0	0.157771	0.689965
     29207.23	0.13052	1890019.0	1614444.0	807427.0	0.157596	0.692893
     29207.72	0.13095	1886933.0	1612262.0	803641.0	0.157315	0.696241
     29208.21	0.13579	1981538.0	1693035.0	842173.0	0.157351	0.698293
     29208.70	0.12225	1789857.0	1529490.0	759098.0	0.157201	0.700559
     29209.19	0.12233	1780113.0	1521590.0	753940.0	0.156921	0.702198
     29209.69	0.12852	1844893.0	1576933.0	780249.0	0.156939	0.703624
     29210.18	0.11779	1680912.0	1437075.0	709904.0	0.156727	0.705235
     29210.67	0.12868	1846578.0	1578868.0	779525.0	0.156626	0.705779
     29211.16	0.13233	1908778.0	1631686.0	805650.0	0.156849	0.705720
     29211.65	0.11639	1660639.0	1420111.0	701156.0	0.156467	0.705760
     29212.14	0.13253	1883673.0	1610676.0	795493.0	0.156570	0.705447
     29212.63	0.11924	1725441.0	1475005.0	729446.0	0.156821	0.704131
     29213.12	0.12842	1874978.0	1603232.0	793546.0	0.156575	0.703265
     29213.61	0.13287	1889783.0	1615583.0	801481.0	0.156766	0.700990
     29214.10	0.13220	1876731.0	1605142.0	798606.0	0.156319	0.698100
     29214.59	0.13472	1940283.0	1659013.0	826999.0	0.156611	0.696175
     29215.08	0.12866	1848925.0	1581371.0	790976.0	0.156312	0.692780
     29215.57	0.12841	1816795.0	1553908.0	780602.0	0.156301	0.688463
     29216.06	0.14167	2031665.0	1737686.0	876969.0	0.156301	0.683838
     29216.56	0.11292	1615324.0	1381852.0	700426.0	0.156111	0.679491
     29217.05	0.11459	1631952.0	1396118.0	711006.0	0.156081	0.674770
     29217.54	0.12634	1816267.0	1553678.0	794811.0	0.156158	0.670276
     29218.03	0.12350	1754189.0	1500402.0	771075.0	0.156274	0.665703
     29218.52	0.12979	1851939.0	1583815.0	817445.0	0.156397	0.661408
     29219.01	0.12364	1783336.0	1525519.0	790335.0	0.156151	0.657633
     29219.50	0.13264	1908346.0	1632866.0	848126.0	0.155900	0.655063
     29219.99	0.14136	2017582.0	1725523.0	898997.0	0.156370	0.652006
     29220.48	0.094962	1361413.0	1164571.0	607462.0	0.156170	0.650818
     29220.97	0.10192	1434800.0	1227148.0	640684.0	0.156333	0.649912
     29221.47	0.11306	1603788.0	1371770.0	716523.0	0.156266	0.649447
     29221.96	0.12281	1733675.0	1482969.0	773882.0	0.156197	0.650382
     29222.45	0.11388	1595823.0	1364897.0	711274.0	0.156311	0.651777
     29222.94	0.11997	1718944.0	1470923.0	764742.0	0.155820	0.654107
     29223.43	0.12986	1852748.0	1585316.0	822134.0	0.155886	0.656636
     29223.92	0.11669	1676548.0	1434930.0	741745.0	0.155621	0.659866
     29224.41	0.10143	1455206.0	1244880.0	641121.0	0.156108	0.663576
     29224.90	0.12559	1764037.0	1509544.0	774035.0	0.155797	0.667946
     29225.39	0.13500	1961940.0	1678789.0	857766.0	0.155861	0.671497
     29225.89	0.12502	1778634.0	1522462.0	774874.0	0.155517	0.675384
     29226.38	0.14137	1977640.0	1693182.0	858397.0	0.155295	0.679298
     29226.87	0.13394	1919107.0	1643163.0	829112.0	0.155237	0.684023
     29227.36	0.15365	2207429.0	1889997.0	949773.0	0.155253	0.688108
     29227.85	0.15103	2179348.0	1865639.0	934505.0	0.155422	0.691342
     29228.34	0.091137	1300239.0	1113589.0	555666.0	0.154960	0.695176
     29228.83	0.12167	1725341.0	1477387.0	734386.0	0.155150	0.698995
     29229.32	0.11005	1580646.0	1353777.0	669857.0	0.154935	0.703589
     29229.81	0.14397	2047569.0	1753605.0	864248.0	0.154980	0.707569
     29230.31	0.12072	1729669.0	1480925.0	727242.0	0.155263	0.711163
     29230.80	0.13951	2009843.0	1721355.0	841799.0	0.154945	0.715326
     29231.29	0.15865	2276045.0	1948832.0	949409.0	0.155209	0.719146
     29231.78	0.12839	1842228.0	1577280.0	765611.0	0.155274	0.722783
     29232.27	0.10205	1476509.0	1263766.0	611266.0	0.155584	0.726319
     29232.76	0.13115	1854290.0	1586954.0	764155.0	0.155685	0.730801
     29233.25	0.13661	1967980.0	1684408.0	808324.0	0.155593	0.734206
     29233.75	0.13643	1976823.0	1691607.0	808857.0	0.155812	0.737812
     29234.24	0.13804	1994489.0	1705993.0	813342.0	0.156241	0.740751
     29234.73	0.14104	2013813.0	1722192.0	818714.0	0.156432	0.743618
     29235.22	0.18720	2687785.0	2298616.0	1089718.0	0.156410	0.746388
     29235.71	0.085508	1223664.0	1046069.0	494953.0	0.156810	0.748332
     29236.20	0.082094	1186895.0	1014352.0	479252.0	0.157091	0.749779
     29236.69	0.13040	1893999.0	1618856.0	763777.0	0.156971	0.751199
     29237.19	0.11663	1655873.0	1414929.0	667235.0	0.157249	0.751692
     29237.68	0.12549	1821107.0	1555863.0	733500.0	0.157414	0.751958
     29238.17	0.12918	1857449.0	1586783.0	748619.0	0.157495	0.751234
     29238.66	0.12988	1876594.0	1603163.0	756948.0	0.157480	0.750439
     29239.15	0.14062	2020531.0	1726017.0	816381.0	0.157544	0.748691
     29239.64	0.10920	1582294.0	1351192.0	640343.0	0.157889	0.746738
     29240.14	0.12021	1742989.0	1487965.0	706720.0	0.158192	0.744530
     29240.63	0.11874	1724900.0	1472845.0	701621.0	0.157973	0.741558
     29241.12	0.12106	1742818.0	1487697.0	710562.0	0.158274	0.738928
     29241.61	0.11865	1705391.0	1455788.0	698166.0	0.158247	0.734846
     29242.10	0.11933	1690434.0	1443347.0	694224.0	0.158021	0.731925
     29242.59	0.12480	1744625.0	1489642.0	719384.0	0.158004	0.727896
     29243.09	0.11958	1716366.0	1465263.0	710659.0	0.158175	0.723597
     29243.58	0.11583	1651189.0	1409427.0	685937.0	0.158312	0.720153
     29244.07	0.12703	1838089.0	1568694.0	766785.0	0.158483	0.715792
     29244.56	0.12878	1837697.0	1568457.0	769891.0	0.158421	0.711599
     29245.05	0.13141	1847726.0	1577262.0	777567.0	0.158265	0.707276
     29245.55	0.12505	1729405.0	1475673.0	730559.0	0.158663	0.703059
     29246.04	0.13379	1906542.0	1627068.0	808271.0	0.158512	0.699638
     29246.53	0.13158	1814449.0	1548103.0	772435.0	0.158752	0.695238
     29247.02	0.12442	1785213.0	1523268.0	762664.0	0.158680	0.691796
     29247.51	0.12123	1731216.0	1476841.0	742126.0	0.158919	0.688142
     29248.00	0.12409	1739338.0	1484103.0	748682.0	0.158694	0.684252
     29248.50	0.12369	1785054.0	1522798.0	770403.0	0.158899	0.681391
     29248.99	0.12890	1874350.0	1599023.0	810922.0	0.158869	0.678976
     29249.48	0.11535	1659913.0	1415941.0	720392.0	0.158971	0.675754
     29249.97	0.12784	1827212.0	1558074.0	794743.0	0.159341	0.673187
     29250.46	0.13222	1879646.0	1602698.0	819784.0	0.159395	0.670403
     29250.96	0.12602	1820897.0	1552526.0	795364.0	0.159446	0.668839
     29251.45	0.12809	1852821.0	1579558.0	810624.0	0.159564	0.667096
     29251.94	0.12424	1812895.0	1545622.0	794053.0	0.159499	0.666031
     29252.43	0.13927	2037647.0	1737221.0	893912.0	0.159509	0.664435
     29252.92	0.12298	1778249.0	1515534.0	780251.0	0.159861	0.663907
     29253.42	0.13236	1939362.0	1653425.0	851787.0	0.159510	0.663268
     29253.91	0.13002	1906097.0	1624742.0	837127.0	0.159709	0.663129
     29254.40	0.14685	2158774.0	1839915.0	948077.0	0.159821	0.663039
     29254.89	0.10516	1539957.0	1312630.0	676063.0	0.159722	0.663502
     29255.39	0.12451	1815007.0	1547102.0	796395.0	0.159706	0.664043
     29255.88	0.13002	1889675.0	1611101.0	828662.0	0.159487	0.664861
     29256.37	0.12066	1800560.0	1534547.0	788274.0	0.159863	0.666145
     29256.86	0.12265	1789631.0	1525156.0	783115.0	0.159913	0.666572
     29257.35	0.12215	1809883.0	1543095.0	790778.0	0.159472	0.668528
     29257.85	0.13533	2011937.0	1715415.0	877482.0	0.159443	0.670354
     29258.34	0.17742	2607768.0	2223838.0	1135373.0	0.159260	0.672273
     29258.83	0.10564	1573344.0	1342051.0	683889.0	0.159004	0.674159
     29259.32	0.098389	1407401.0	1200335.0	610290.0	0.159144	0.676422
     29259.82	0.10337	1515101.0	1292273.0	655644.0	0.159079	0.678540
     29260.31	0.10297	1492244.0	1273369.0	644262.0	0.158615	0.681316
     29260.80	0.11624	1707412.0	1457160.0	735203.0	0.158489	0.684098
     29261.29	0.14600	2143536.0	1830046.0	920316.0	0.158116	0.687379
     29261.79	0.15500	2295309.0	1959633.0	982766.0	0.158110	0.690141
     29262.28	0.12498	1813957.0	1548693.0	774450.0	0.158099	0.693014
     29262.77	0.087014	1250060.0	1067783.0	532218.0	0.157607	0.696287
     29263.26	0.081920	1202795.0	1027602.0	510229.0	0.157420	0.700124
     29263.75	0.12684	1817812.0	1553299.0	769081.0	0.157253	0.702940
     29264.25	0.12153	1734101.0	1482271.0	731141.0	0.156914	0.706724
     29264.74	0.11971	1709047.0	1460581.0	718221.0	0.157102	0.709812
     29265.23	0.16424	2373904.0	2029271.0	994179.0	0.156859	0.713515
     29265.72	0.11993	1719945.0	1470606.0	718164.0	0.156618	0.716732
     29266.22	0.13458	1905138.0	1629604.0	793490.0	0.156217	0.719651
     29266.71	0.12618	1818272.0	1555311.0	754752.0	0.156211	0.723042
     29267.20	0.11515	1675462.0	1433522.0	694061.0	0.155955	0.725330
     29267.70	0.12208	1754655.0	1501245.0	724528.0	0.155977	0.728530
     29268.19	0.13051	1877077.0	1606263.0	773460.0	0.155805	0.730792
     29268.68	0.13130	1909989.0	1635031.0	786110.0	0.155436	0.732320
     29269.17	0.13748	1990393.0	1703928.0	816943.0	0.155396	0.735122
     29269.67	0.13295	1911047.0	1636160.0	783396.0	0.155299	0.736469
     29270.16	0.12434	1798155.0	1539913.0	736524.0	0.155035	0.737539
     29270.65	0.13279	1899448.0	1626625.0	777293.0	0.155056	0.738445
     29271.14	0.12765	1783946.0	1527912.0	729451.0	0.154926	0.739365
     29271.64	0.14820	2098170.0	1797120.0	857955.0	0.154880	0.739389
     29272.13	0.12259	1756245.0	1504106.0	717735.0	0.154979	0.739854
     29272.62	0.14163	1986589.0	1701630.0	812118.0	0.154832	0.739696
     29273.11	0.13184	1910831.0	1636979.0	781642.0	0.154686	0.739211
     29273.61	0.11542	1658178.0	1421023.0	678969.0	0.154342	0.738557
     29274.10	0.13578	1951002.0	1671923.0	799560.0	0.154369	0.737668
     29274.59	0.12447	1776381.0	1522195.0	729049.0	0.154425	0.736168
     29275.09	0.12888	1861001.0	1594951.0	765031.0	0.154272	0.734682
     29275.58	0.11749	1683718.0	1442908.0	692632.0	0.154344	0.733917
     29276.07	0.12862	1789434.0	1533156.0	737567.0	0.154571	0.731727
     29276.56	0.12749	1821421.0	1560693.0	751647.0	0.154487	0.730618
     29277.06	0.13236	1881011.0	1612127.0	778372.0	0.154255	0.728105
     29277.55	0.11939	1695373.0	1453293.0	702761.0	0.154071	0.726570
     29278.04	0.12853	1845806.0	1581807.0	766561.0	0.154348	0.724409
     29278.54	0.11818	1665074.0	1427084.0	692898.0	0.154236	0.722506
     29279.03	0.12236	1741155.0	1492311.0	725896.0	0.154223	0.720674
     29279.52	0.12549	1768549.0	1515687.0	739155.0	0.154291	0.718116
     29280.02	0.12024	1726763.0	1480354.0	723379.0	0.153967	0.716103
     29280.51	0.11531	1644979.0	1409859.0	690016.0	0.154238	0.714530
     29281.00	0.13029	1811212.0	1552200.0	761258.0	0.154323	0.712456
     29281.49	0.12112	1711980.0	1467397.0	721115.0	0.154161	0.710447
     29281.99	0.11781	1698155.0	1455761.0	715990.0	0.154014	0.709618
     29282.48	0.12058	1684605.0	1444395.0	711900.0	0.153841	0.707508
     29282.97	0.13043	1822631.0	1562410.0	771294.0	0.154052	0.705915
     29283.47	0.13142	1903080.0	1630973.0	806645.0	0.154297	0.704048
     29283.96	0.13429	1900699.0	1629266.0	806580.0	0.154092	0.703082
     29284.45	0.12539	1775167.0	1521905.0	755169.0	0.153932	0.700777
     29284.95	0.13338	1901829.0	1630801.0	809457.0	0.153745	0.700463
     29285.44	0.12237	1729257.0	1482265.0	736782.0	0.154121	0.699035
     29285.93	0.11208	1618003.0	1387287.0	690215.0	0.153843	0.698102
     29286.43	0.13090	1842782.0	1579855.0	786926.0	0.153943	0.696954
     29286.92	0.12383	1778112.0	1524671.0	759730.0	0.153773	0.696571
     29287.41	0.12379	1735899.0	1488588.0	742568.0	0.153697	0.695469
     29287.91	0.12512	1753005.0	1503615.0	750251.0	0.153459	0.695220
     29288.40	0.15381	2179245.0	1868587.0	933589.0	0.153796	0.693902
     29288.89	0.12695	1824681.0	1564770.0	781823.0	0.153666	0.693866
     29289.39	0.10338	1481190.0	1270053.0	634702.0	0.153787	0.693658
     29289.88	0.12144	1726145.0	1480406.0	740443.0	0.153574	0.692823
     29290.37	0.13864	2008193.0	1722348.0	861838.0	0.153547	0.692376
     29290.87	0.12371	1811425.0	1553431.0	777223.0	0.153648	0.692494
     29291.36	0.12504	1785622.0	1531196.0	766817.0	0.153718	0.691556
     29291.85	0.13570	1922534.0	1648215.0	825091.0	0.153951	0.691954
     29292.35	0.14258	2069100.0	1774706.0	888266.0	0.153479	0.692119
     29292.84	0.11106	1567815.0	1344059.0	672937.0	0.153989	0.691798
     29293.33	0.12354	1746833.0	1498197.0	750110.0	0.153542	0.691798
     29293.83	0.12057	1713715.0	1469304.0	735366.0	0.153875	0.692176
     29294.32	0.13330	1913859.0	1641280.0	821335.0	0.153645	0.692301
     29294.81	0.11975	1718905.0	1473890.0	737624.0	0.153782	0.692226
     29295.31	0.12692	1772514.0	1519769.0	760254.0	0.153841	0.692661
     29295.80	0.12886	1834997.0	1573708.0	787018.0	0.153608	0.692939
     29296.29	0.13548	1946774.0	1669580.0	834489.0	0.153602	0.693508
     29296.79	0.10591	1540384.0	1320863.0	659872.0	0.153746	0.693995
     29297.28	0.11908	1714914.0	1470251.0	734270.0	0.153930	0.694312
     29297.77	0.10902	1567968.0	1344358.0	670913.0	0.153864	0.695032
     29298.27	0.10974	1562104.0	1339270.0	668113.0	0.153909	0.695423
     29298.76	0.12145	1728049.0	1481526.0	738342.0	0.153920	0.696421
     29299.26	0.14707	2078899.0	1782259.0	887535.0	0.153957	0.697189
     29299.75	0.11024	1530051.0	1311189.0	652846.0	0.154367	0.697348
     29300.24	0.15201	2158698.0	1850880.0	920619.0	0.153844	0.698370
     29300.74	0.10338	1485211.0	1273325.0	632879.0	0.153925	0.699108
     29301.23	0.081091	1152963.0	988238.0	490626.0	0.154167	0.700241
     29301.72	0.11423	1622459.0	1391085.0	690260.0	0.153859	0.700771
     29302.22	0.13744	1966902.0	1686114.0	835746.0	0.154033	0.701857
     29302.71	0.12745	1807724.0	1549531.0	767212.0	0.154116	0.702944
     29303.21	0.17288	2412934.0	2068844.0	1023980.0	0.153853	0.703293
     29303.70	0.17540	2490409.0	2134230.0	1055178.0	0.154341	0.704396
     29304.19	0.063062	880311.0	754359.0	372519.0	0.154407	0.705580
     29304.69	0.10812	1523187.0	1305868.0	644602.0	0.153937	0.705990
     29305.18	0.13555	1899680.0	1628628.0	803062.0	0.153948	0.707061
     29305.67	0.11544	1649577.0	1413940.0	696624.0	0.154139	0.707890
     29306.17	0.13144	1875988.0	1607877.0	791401.0	0.154221	0.708865
     29306.66	0.14616	2073023.0	1777003.0	874749.0	0.154080	0.708747
     29307.16	0.12055	1736292.0	1488172.0	731446.0	0.154203	0.710280
     29307.65	0.18815	2651678.0	2273192.0	1116401.0	0.154008	0.711075
     29308.14	0.082551	1164749.0	998518.0	490324.0	0.153989	0.711206
     29308.64	0.11448	1566013.0	1342349.0	658901.0	0.154112	0.711603
     29309.13	0.13799	1955036.0	1676113.0	821732.0	0.153931	0.712818
     29309.63	0.12942	1802629.0	1545141.0	757139.0	0.154131	0.713324
     29310.12	0.13335	1901285.0	1629670.0	798143.0	0.154152	0.713845
     29310.61	0.14794	2102252.0	1802481.0	882436.0	0.153845	0.714233
     29311.11	0.11871	1687941.0	1446730.0	708180.0	0.154204	0.714363
     29311.60	0.14808	2110004.0	1809085.0	885377.0	0.153869	0.714563
     29312.10	0.11774	1670503.0	1431892.0	700179.0	0.154128	0.715416
     29312.59	0.12015	1686904.0	1445775.0	706769.0	0.154249	0.715697
     29313.08	0.12800	1766440.0	1514001.0	740388.0	0.154210	0.715337
     29313.58	0.12019	1722640.0	1476955.0	721677.0	0.153875	0.716160
     29314.07	0.12650	1758955.0	1507535.0	736404.0	0.154244	0.716452
     29314.57	0.13280	1863574.0	1597657.0	780534.0	0.153958	0.716315
     29315.06	0.12450	1748475.0	1498760.0	732171.0	0.154106	0.716379
     29315.56	0.12868	1805214.0	1547776.0	756132.0	0.153860	0.716358
     29316.05	0.12241	1735845.0	1488228.0	726529.0	0.153908	0.717063
     29316.54	0.12590	1810587.0	1552214.0	757657.0	0.153969	0.717207
     29317.04	0.11412	1612698.0	1382546.0	675074.0	0.153982	0.716860
     29317.53	0.12893	1845300.0	1581776.0	772592.0	0.154094	0.716552
     29318.03	0.12314	1748451.0	1498642.0	731783.0	0.154171	0.716831
     29318.52	0.11726	1664353.0	1426633.0	696605.0	0.154119	0.716854
     29319.02	0.12176	1721624.0	1475881.0	720583.0	0.154013	0.716950
     29319.51	0.13161	1877096.0	1609002.0	786013.0	0.154112	0.716396
     29320.00	0.11085	1574316.0	1349507.0	659093.0	0.154082	0.716630
     29320.50	0.12356	1777696.0	1523923.0	744470.0	0.154030	0.716371
     29320.99	0.12708	1771760.0	1518544.0	742233.0	0.154221	0.715844
     29321.49	0.12478	1737148.0	1489122.0	727865.0	0.154058	0.715826
     29321.98	0.12535	1746055.0	1496788.0	731797.0	0.154037	0.715574
     29322.48	0.13849	1955518.0	1676080.0	819837.0	0.154197	0.715107
     29322.97	0.12715	1756534.0	1505546.0	736634.0	0.154187	0.714820
     29323.47	0.12743	1794861.0	1538550.0	752902.0	0.154087	0.714661
     29323.96	0.13477	1922132.0	1647529.0	806657.0	0.154158	0.714133
     29324.45	0.11389	1585015.0	1358840.0	665538.0	0.153962	0.713791
     29324.95	0.12550	1772818.0	1520041.0	744599.0	0.153833	0.713647
     29325.44	0.12705	1774858.0	1521305.0	745861.0	0.154152	0.712785
     29325.94	0.12004	1648632.0	1413483.0	693355.0	0.153889	0.712270
     29326.43	0.12336	1725716.0	1479018.0	726185.0	0.154264	0.711329
     29326.93	0.12609	1796739.0	1540262.0	755772.0	0.154021	0.711968
     29327.42	0.12574	1756541.0	1505558.0	739834.0	0.154183	0.710493
     29327.92	0.12276	1725121.0	1479122.0	726817.0	0.153849	0.710529
     29328.41	0.13788	1925875.0	1651140.0	812009.0	0.153914	0.709710
     29328.91	0.13051	1860842.0	1595437.0	785060.0	0.153881	0.709143
     29329.40	0.12287	1691222.0	1449992.0	714165.0	0.153893	0.708199
     29329.89	0.13075	1835366.0	1573956.0	775439.0	0.153652	0.707918
     29330.39	0.14619	2052425.0	1759605.0	867076.0	0.153933	0.707718
     29330.88	0.12394	1748339.0	1499126.0	739331.0	0.153784	0.706892
     29331.38	0.12661	1762752.0	1512124.0	746069.0	0.153361	0.706452
     29331.87	0.11019	1566182.0	1343432.0	663248.0	0.153413	0.705834
     29332.37	0.12445	1753099.0	1503736.0	742369.0	0.153432	0.705862
     29332.86	0.12670	1774791.0	1522123.0	751758.0	0.153577	0.705447
     29333.36	0.12370	1705014.0	1462389.0	722859.0	0.153502	0.704612
     29333.85	0.12762	1798841.0	1543219.0	763062.0	0.153272	0.704286
     29334.35	0.11777	1646624.0	1412750.0	698334.0	0.153189	0.704596
     29334.84	0.14225	2032581.0	1743848.0	863006.0	0.153212	0.703428
     29335.34	0.10266	1437599.0	1233402.0	610650.0	0.153198	0.703008
     29335.83	0.12440	1716499.0	1473097.0	729795.0	0.152920	0.702359
     29336.33	0.11493	1595501.0	1369195.0	678360.0	0.152965	0.702300
     29336.82	0.11902	1668048.0	1431465.0	709582.0	0.152956	0.701778
     29337.32	0.10882	1554732.0	1334475.0	661333.0	0.152765	0.702036
     29337.81	0.13341	1867743.0	1603297.0	795167.0	0.152669	0.701265
     29338.31	0.10637	1488980.0	1277866.0	633930.0	0.152900	0.701008
     29338.80	0.12403	1735497.0	1489844.0	739413.0	0.152622	0.700570
     29339.30	0.12792	1780149.0	1528297.0	758597.0	0.152543	0.700439
     29339.79	0.11094	1567493.0	1345878.0	668055.0	0.152431	0.700431
     29340.29	0.10619	1515941.0	1301681.0	646388.0	0.152380	0.700012
     29340.78	0.13466	1908806.0	1638898.0	814246.0	0.152454	0.699517
     29341.28	0.13014	1805733.0	1550191.0	770356.0	0.152588	0.699281
     29341.77	0.12808	1772486.0	1521891.0	756086.0	0.152429	0.699554
     29342.27	0.16128	2284057.0	1961281.0	975044.0	0.152355	0.698871
     29342.76	0.13150	1883448.0	1617376.0	803859.0	0.152299	0.699136
     29343.26	0.11775	1665683.0	1430658.0	711003.0	0.152101	0.699213
     29343.75	0.10293	1442545.0	1238913.0	616283.0	0.152175	0.698283
     29344.25	0.13080	1834778.0	1576024.0	783856.0	0.152018	0.698435
     29344.74	0.13404	1908421.0	1639530.0	815549.0	0.151867	0.698303
     29345.24	0.11905	1697317.0	1458035.0	725127.0	0.151959	0.698498
     29345.73	0.12521	1763862.0	1515320.0	753490.0	0.151879	0.698666
     29346.23	0.14444	2036890.0	1749851.0	870162.0	0.151893	0.698607
     29346.72	0.15334	2172553.0	1866915.0	928562.0	0.151616	0.698405
     29347.22	0.11267	1559425.0	1340025.0	666581.0	0.151629	0.698282
     29347.72	0.12268	1743977.0	1498873.0	745175.0	0.151455	0.698850
     29348.21	0.12234	1716580.0	1475524.0	733458.0	0.151321	0.698998
     29348.71	0.14270	1997236.0	1716473.0	853674.0	0.151493	0.698477
     29349.20	0.13240	1873169.0	1610058.0	800445.0	0.151361	0.698858
     29349.70	0.13468	1904679.0	1637037.0	814136.0	0.151426	0.698516
     29350.19	0.13641	1918757.0	1648928.0	819982.0	0.151552	0.698598
     29350.69	0.14275	1988742.0	1709362.0	850002.0	0.151382	0.698637
     29351.18	0.11333	1596082.0	1371810.0	681767.0	0.151421	0.699198
     29351.68	0.12555	1769724.0	1521640.0	756090.0	0.151035	0.699384
     29352.17	0.13250	1865737.0	1603692.0	796870.0	0.151348	0.699372
     29352.67	0.11751	1639039.0	1408997.0	700106.0	0.151232	0.699402
     29353.16	0.12442	1744537.0	1499612.0	744732.0	0.151283	0.699937
     29353.66	0.13176	1870116.0	1607608.0	798176.0	0.151253	0.700174
     29354.16	0.12289	1752685.0	1506885.0	748011.0	0.151104	0.700382
     29354.65	0.12854	1812233.0	1557838.0	773608.0	0.151261	0.699989
     29355.15	0.12249	1721203.0	1479698.0	734291.0	0.151185	0.700688
     29355.64	0.12661	1764581.0	1516777.0	752950.0	0.151326	0.700344
     29356.14	0.12724	1737777.0	1494286.0	741592.0	0.150958	0.700605
     29356.63	0.11815	1657199.0	1424864.0	706750.0	0.151052	0.701155
     29357.13	0.12678	1762020.0	1515130.0	751501.0	0.150960	0.701184
     29357.63	0.12620	1751808.0	1506675.0	746923.0	0.150743	0.701698
     29358.12	0.12504	1764142.0	1516688.0	751886.0	0.151135	0.701700
     29358.62	0.11700	1647385.0	1416760.0	701788.0	0.150817	0.702496
     29359.11	0.11861	1662676.0	1429783.0	708313.0	0.150906	0.702392
     29359.61	0.11662	1640477.0	1411011.0	698739.0	0.150681	0.702784
     29360.10	0.12415	1738746.0	1495467.0	740748.0	0.150726	0.702533
     29360.60	0.12059	1698613.0	1460527.0	723317.0	0.151015	0.702705
     29361.09	0.12087	1680295.0	1445135.0	715403.0	0.150767	0.703112
     29361.59	0.13560	1908534.0	1641590.0	812445.0	0.150670	0.703372
     29362.09	0.11655	1630864.0	1403003.0	694123.0	0.150495	0.703721
     29362.58	0.14114	2012539.0	1731085.0	856317.0	0.150649	0.703863
     29363.08	0.12501	1743644.0	1499794.0	741897.0	0.150649	0.703873
     29363.57	0.14153	1973916.0	1698026.0	839920.0	0.150553	0.703915
     29364.07	0.11428	1577596.0	1357617.0	671334.0	0.150171	0.704219
     29364.57	0.12888	1783489.0	1534291.0	758555.0	0.150503	0.704408
     29365.06	0.12265	1702506.0	1464858.0	724275.0	0.150343	0.704342
     29365.56	0.11473	1621305.0	1395092.0	689773.0	0.150271	0.704353
     29366.05	0.13019	1830856.0	1575468.0	778644.0	0.150231	0.704754
     29366.55	0.12890	1791321.0	1541377.0	761793.0	0.150277	0.704757
     29367.05	0.12288	1712634.0	1473941.0	728821.0	0.150093	0.704267
     29367.54	0.12215	1681490.0	1447275.0	715261.0	0.149998	0.704790
     29368.04	0.13359	1876224.0	1614643.0	798115.0	0.150147	0.704616
     29368.53	0.13127	1862161.0	1602417.0	791874.0	0.150225	0.704866
     29369.03	0.13029	1818376.0	1565329.0	773665.0	0.149848	0.704712
     29369.53	0.12323	1750728.0	1507105.0	745046.0	0.149841	0.704500
     29370.02	0.13175	1877615.0	1616337.0	798963.0	0.149840	0.704603
     29370.52	0.13347	1896624.0	1632759.0	806938.0	0.149804	0.704780
     29371.01	0.12745	1821667.0	1568137.0	775857.0	0.149864	0.703675
     29371.51	0.12611	1818970.0	1565922.0	774480.0	0.149796	0.704038
     29372.01	0.12871	1830506.0	1575580.0	779524.0	0.149969	0.703695
     29372.50	0.12496	1745469.0	1502371.0	743293.0	0.149979	0.703709
     29373.00	0.12241	1706793.0	1469280.0	727233.0	0.149844	0.703281
     29373.49	0.12880	1844282.0	1588091.0	786136.0	0.149557	0.703158
     29373.99	0.12619	1806807.0	1555441.0	770385.0	0.149802	0.702624
     29374.49	0.12266	1768226.0	1522395.0	753739.0	0.149692	0.702994
     29374.98	0.12734	1834239.0	1579585.0	782591.0	0.149468	0.702307
     29375.48	0.12825	1843314.0	1586819.0	786134.0	0.149834	0.702359
     29375.98	0.10608	1522032.0	1310145.0	649215.0	0.149908	0.702129
     29376.47	0.12451	1801093.0	1550829.0	768811.0	0.149604	0.701700
     29376.97	0.12530	1817853.0	1565394.0	776437.0	0.149519	0.701177
     29377.46	0.11929	1715339.0	1476535.0	732712.0	0.149913	0.700701
     29377.96	0.11792	1682499.0	1449185.0	719449.0	0.149279	0.700271
     29378.46	0.11429	1641547.0	1413736.0	702345.0	0.149403	0.699566
     29378.95	0.13612	1946663.0	1675860.0	832321.0	0.149790	0.699864
     29379.45	0.099838	1439218.0	1238913.0	615773.0	0.149866	0.699111
     29379.95	0.10506	1510571.0	1300458.0	646569.0	0.149771	0.698792
     29380.44	0.12996	1882204.0	1620964.0	806277.0	0.149422	0.698349
     29380.94	0.12741	1821873.0	1568840.0	781086.0	0.149529	0.697407
     29381.44	0.11290	1623824.0	1398332.0	696430.0	0.149504	0.697068
     29381.93	0.13361	1925630.0	1657995.0	826017.0	0.149644	0.696749
     29382.43	0.12902	1836101.0	1580743.0	788074.0	0.149749	0.696058
     29382.93	0.15195	2172852.0	1870951.0	933346.0	0.149594	0.695426
     29383.42	0.12702	1797006.0	1547350.0	772111.0	0.149578	0.695171
     29383.92	0.10411	1499031.0	1290774.0	644461.0	0.149577	0.694583
     29384.41	0.12507	1825978.0	1572044.0	785239.0	0.149739	0.694144
     29384.91	0.13328	1919045.0	1652659.0	825930.0	0.149442	0.693631
     29385.41	0.13350	1935894.0	1667255.0	833370.0	0.149391	0.693456
     29385.90	0.12027	1725467.0	1485835.0	743152.0	0.149521	0.692832
     29386.40	0.12430	1785331.0	1537857.0	769047.0	0.149214	0.692993
     29386.90	0.13951	1998396.0	1720874.0	861460.0	0.149513	0.691959
     29387.39	0.12868	1849499.0	1592929.0	797712.0	0.149340	0.691582
     29387.89	0.12929	1860537.0	1602403.0	802971.0	0.149361	0.690941
     29388.39	0.12885	1835232.0	1581008.0	792303.0	0.149108	0.690874
     29388.88	0.13372	1920510.0	1653719.0	829702.0	0.149564	0.689715
     29389.38	0.13666	1959835.0	1687815.0	846847.0	0.149425	0.689670
     29389.88	0.13434	1940974.0	1671902.0	839517.0	0.149228	0.688890
     29390.37	0.13306	1893451.0	1630871.0	819351.0	0.149287	0.688357
     29390.87	0.14142	2022838.0	1742281.0	875542.0	0.149306	0.688107
     29391.37	0.13061	1876123.0	1616008.0	812268.0	0.149249	0.687884
     29391.87	0.12367	1765061.0	1520187.0	764802.0	0.149352	0.686972
     29392.36	0.11886	1684694.0	1451479.0	730268.0	0.149001	0.686927
     29392.86	0.13129	1875415.0	1615511.0	813270.0	0.149179	0.686343
     29393.36	0.12403	1768239.0	1522913.0	766915.0	0.149359	0.686004
     29393.85	0.12961	1860578.0	1603220.0	807792.0	0.148873	0.685465
     29394.35	0.12561	1788377.0	1540765.0	776443.0	0.149029	0.685311
     29394.85	0.12838	1846256.0	1591291.0	801833.0	0.148614	0.685401
     29395.34	0.12911	1839910.0	1585428.0	799631.0	0.148862	0.684459
     29395.84	0.11444	1625459.0	1400471.0	706619.0	0.148982	0.684072
     29396.34	0.12982	1844182.0	1589402.0	802223.0	0.148678	0.683726
     29396.83	0.11637	1665860.0	1435423.0	724356.0	0.148882	0.683932
     29397.33	0.13210	1862982.0	1605543.0	810906.0	0.148716	0.683065
     29397.83	0.12943	1846270.0	1591147.0	803742.0	0.148712	0.682932
     29398.33	0.11356	1616730.0	1393360.0	703969.0	0.148687	0.682739
     29398.82	0.12450	1781889.0	1535653.0	775811.0	0.148718	0.682802
     29399.32	0.12432	1784154.0	1537782.0	777103.0	0.148603	0.682523
     29399.82	0.11931	1706289.0	1470391.0	743575.0	0.148792	0.681814
     29400.31	0.11257	1587538.0	1368176.0	692030.0	0.148706	0.681604
     29400.81	0.12640	1802164.0	1553408.0	785599.0	0.148537	0.681760
     29401.31	0.12065	1712369.0	1475879.0	746511.0	0.148624	0.681599
     29401.80	0.12207	1729957.0	1490815.0	754240.0	0.148774	0.681368
     29402.30	0.12213	1758251.0	1515858.0	766857.0	0.148338	0.681437
     29402.80	0.12572	1826451.0	1574661.0	796772.0	0.148335	0.681227
     29403.30	0.13344	1906775.0	1643539.0	831775.0	0.148561	0.681045
     29403.79	0.12134	1761003.0	1518389.0	768612.0	0.148234	0.680819
     29404.29	0.14036	1985087.0	1711386.0	866419.0	0.148359	0.680690
     29404.79	0.12201	1762507.0	1519413.0	769075.0	0.148413	0.680891
     29405.29	0.13479	1911808.0	1648356.0	834638.0	0.148271	0.680536
     29405.78	0.11748	1682614.0	1450938.0	734498.0	0.148138	0.680778
     29406.28	0.12327	1737035.0	1498337.0	758725.0	0.147824	0.680472
     29406.78	0.12751	1786429.0	1540480.0	779804.0	0.148125	0.680807
     29407.27	0.11825	1663805.0	1434638.0	726565.0	0.148195	0.680340
     29407.77	0.13342	1863239.0	1606673.0	813418.0	0.148151	0.680676
     29408.27	0.11943	1700272.0	1466354.0	742560.0	0.148009	0.680431
     29408.77	0.12825	1811840.0	1562355.0	790907.0	0.148149	0.680769
     29409.26	0.12747	1817856.0	1568137.0	793723.0	0.147769	0.680909
     29409.76	0.13321	1865087.0	1608592.0	814379.0	0.147948	0.680689
     29410.26	0.12777	1782367.0	1537314.0	778508.0	0.147906	0.680413
     29410.76	0.13493	1892952.0	1632882.0	826498.0	0.147791	0.680904
     29411.25	0.12969	1836088.0	1583924.0	801753.0	0.147732	0.680860
     29411.75	0.12669	1809055.0	1560709.0	789945.0	0.147664	0.680932
     29412.25	0.13057	1819443.0	1569461.0	794203.0	0.147798	0.681148
     29412.75	0.12748	1817286.0	1568185.0	793522.0	0.147425	0.681193
     29413.24	0.11990	1694438.0	1462409.0	739922.0	0.147266	0.681296
     29413.74	0.12257	1721034.0	1485120.0	751602.0	0.147430	0.681044
     29414.24	0.13163	1856307.0	1601794.0	810324.0	0.147465	0.681445
     29414.74	0.12521	1755610.0	1514839.0	766260.0	0.147507	0.681543
     29415.23	0.13921	1968399.0	1698688.0	859256.0	0.147364	0.681545
     29415.73	0.13729	1900924.0	1640805.0	829609.0	0.147153	0.681988
     29416.23	0.11014	1541214.0	1330079.0	672719.0	0.147332	0.681666
     29416.73	0.11163	1551018.0	1338784.0	677078.0	0.147150	0.681731
     29417.22	0.12005	1730952.0	1494087.0	755094.0	0.147156	0.682428
     29417.72	0.11780	1671238.0	1442767.0	729388.0	0.147002	0.682112
     29418.22	0.12040	1740895.0	1502941.0	759824.0	0.146975	0.682092
     29418.72	0.11226	1578363.0	1362878.0	688932.0	0.146790	0.682211
     29419.22	0.10975	1545462.0	1334215.0	674646.0	0.146980	0.681910
     29419.71	0.13262	1864751.0	1610115.0	813486.0	0.146822	0.682732
     29420.21	0.10527	1484731.0	1281847.0	647748.0	0.146932	0.682556
     29420.71	0.11740	1658070.0	1431807.0	723607.0	0.146717	0.682444
     29421.21	0.11253	1553618.0	1341322.0	677484.0	0.146931	0.683025
     29421.70	0.12501	1782713.0	1539741.0	777521.0	0.146522	0.683259
     29422.20	0.12230	1704901.0	1472143.0	743636.0	0.146788	0.682923
     29422.70	0.12528	1779154.0	1536471.0	775813.0	0.146650	0.683332
     29423.20	0.13226	1874902.0	1619104.0	817707.0	0.146683	0.683124
     29423.70	0.14487	2021249.0	1745379.0	880982.0	0.146744	0.683690
     29424.19	0.12782	1791544.0	1547172.0	781180.0	0.146649	0.683378
     29424.69	0.11416	1574519.0	1359612.0	686438.0	0.146750	0.683439
     29425.19	0.13029	1814476.0	1567261.0	791100.0	0.146467	0.683660
     29425.69	0.13862	1938309.0	1674017.0	844959.0	0.146590	0.683693
     29426.19	0.12515	1737704.0	1500443.0	757751.0	0.146804	0.683161
     29426.68	0.13019	1820289.0	1572399.0	793994.0	0.146393	0.683282
     29427.18	0.12563	1773714.0	1532420.0	773725.0	0.146227	0.683387
     29427.68	0.13378	1877271.0	1621333.0	818901.0	0.146570	0.683041
     29428.18	0.13073	1833562.0	1583905.0	800016.0	0.146367	0.683017
     29428.68	0.12127	1685734.0	1456470.0	735480.0	0.146185	0.683248
     29429.17	0.12936	1788840.0	1545576.0	780390.0	0.146171	0.683358
     29429.67	0.13102	1836811.0	1586768.0	801257.0	0.146332	0.683273
     29430.17	0.13667	1871591.0	1616790.0	816786.0	0.146346	0.682821
     29430.67	0.14469	1969383.0	1701218.0	859031.0	0.146376	0.683295
     29431.17	0.12069	1702962.0	1471445.0	743641.0	0.146124	0.682442
     29431.66	0.13227	1853265.0	1600828.0	808864.0	0.146428	0.682645
     29432.16	0.13163	1801099.0	1556463.0	786970.0	0.145981	0.681981
     29432.66	0.12794	1751723.0	1513907.0	765109.0	0.145906	0.682431
     29433.16	0.13100	1838956.0	1588930.0	802944.0	0.146137	0.682531
     29433.66	0.12311	1723159.0	1489104.0	752683.0	0.145985	0.682286
     29434.16	0.13003	1783047.0	1540805.0	778954.0	0.146019	0.682108
     29434.65	0.12540	1757916.0	1519252.0	768635.0	0.145911	0.681357
     29435.15	0.13153	1837739.0	1588585.0	803683.0	0.145692	0.681394
     29435.65	0.11414	1620661.0	1400385.0	708536.0	0.146087	0.681302
     29436.15	0.13320	1865223.0	1611651.0	815607.0	0.146121	0.681082
     29436.65	0.12525	1756590.0	1517787.0	768234.0	0.146121	0.680914
     29437.15	0.12202	1694375.0	1464460.0	741810.0	0.145827	0.680149
     29437.64	0.12616	1775844.0	1534570.0	777321.0	0.146026	0.680152
     29438.14	0.12689	1761330.0	1522206.0	771009.0	0.145909	0.680216
     29438.64	0.12458	1762480.0	1523142.0	771988.0	0.145947	0.679562
     29439.14	0.11007	1554035.0	1342635.0	680510.0	0.146221	0.679547
     29439.64	0.12279	1748002.0	1510635.0	765643.0	0.145943	0.679569
     29440.14	0.11746	1654127.0	1429693.0	724984.0	0.145814	0.679065
     29440.63	0.11868	1698354.0	1468008.0	744686.0	0.145753	0.678699
     29441.13	0.12098	1683180.0	1454164.0	737815.0	0.146254	0.678493
     29441.63	0.13076	1861336.0	1608304.0	816077.0	0.146114	0.678427
     29442.13	0.12687	1766772.0	1527121.0	775527.0	0.145770	0.677597
     29442.63	0.10103	1422920.0	1229922.0	624648.0	0.145760	0.677518
     29443.13	0.15147	2135168.0	1845555.0	937738.0	0.145765	0.677065
     29443.63	0.12332	1750357.0	1512766.0	769162.0	0.145880	0.676393
     29444.12	0.12653	1837604.0	1588678.0	807598.0	0.145560	0.676593
     29444.62	0.13263	1879143.0	1624213.0	826241.0	0.145792	0.675892
     29445.12	0.12531	1792119.0	1549223.0	788686.0	0.145645	0.675141
     29445.62	0.12756	1805635.0	1561149.0	794584.0	0.145490	0.675359
     29446.12	0.12082	1708199.0	1476849.0	751680.0	0.145529	0.675355
     29446.62	0.12244	1737763.0	1502109.0	765212.0	0.145729	0.674472
     29447.12	0.12991	1812563.0	1567244.0	798934.0	0.145423	0.673796
     29447.62	0.12247	1728938.0	1494745.0	761511.0	0.145552	0.674406
     29448.11	0.12015	1706498.0	1474957.0	752609.0	0.145814	0.672838
     29448.61	0.13308	1899333.0	1641802.0	837790.0	0.145708	0.672782
     29449.11	0.11675	1669638.0	1443488.0	736858.0	0.145544	0.672422
     29449.61	0.13541	1904642.0	1646766.0	840937.0	0.145481	0.672052
     29450.11	0.12341	1747608.0	1510855.0	771524.0	0.145572	0.672063
     29450.61	0.13710	1941519.0	1679032.0	857855.0	0.145253	0.671538
     29451.11	0.13443	1883457.0	1628460.0	832739.0	0.145474	0.670670
     29451.61	0.12909	1859267.0	1607945.0	822248.0	0.145225	0.670670
     29452.10	0.12327	1740295.0	1504744.0	769779.0	0.145432	0.670275
     29452.60	0.12301	1738755.0	1503491.0	769392.0	0.145380	0.669944
     29453.10	0.13154	1878951.0	1625200.0	831755.0	0.145083	0.669848
     29453.60	0.12918	1819132.0	1573256.0	805778.0	0.145212	0.669094
     29454.10	0.11816	1669414.0	1443565.0	739538.0	0.145357	0.668845
     29454.60	0.12624	1772962.0	1533175.0	786072.0	0.145311	0.668048
     29455.10	0.13760	1921756.0	1662008.0	852345.0	0.145213	0.667790
     29455.60	0.11751	1647534.0	1424676.0	730512.0	0.145335	0.667954
     29456.10	0.11602	1612096.0	1393925.0	715689.0	0.145412	0.666633
     29456.59	0.11724	1635930.0	1414757.0	726292.0	0.145254	0.666761
     29457.09	0.12249	1702374.0	1472180.0	756188.0	0.145279	0.666210
     29457.59	0.12133	1701053.0	1471372.0	755828.0	0.145052	0.666137
     29458.09	0.11918	1662876.0	1438077.0	739283.0	0.145242	0.665381
     29458.59	0.11807	1659367.0	1434926.0	737845.0	0.145323	0.665135
     29459.09	0.12670	1785788.0	1544644.0	794425.0	0.145066	0.664930
     29459.59	0.10787	1515365.0	1310808.0	674664.0	0.145013	0.664184
     29460.09	0.10665	1489826.0	1288709.0	663006.0	0.145018	0.664612
     29460.59	0.10991	1527700.0	1321794.0	680652.0	0.144773	0.663694
     29461.09	0.12470	1723813.0	1491366.0	768163.0	0.144846	0.663446
     29461.59	0.11542	1601366.0	1385598.0	714281.0	0.144725	0.662611
     29462.09	0.14649	2038639.0	1764003.0	909366.0	0.144697	0.662593
     29462.58	0.11731	1623047.0	1404459.0	724069.0	0.144653	0.662521
     29463.08	0.15506	2149415.0	1860052.0	959454.0	0.144591	0.661995
     29463.58	0.11787	1648281.0	1425838.0	735903.0	0.144973	0.661417
     29464.08	0.11247	1571234.0	1359385.0	701667.0	0.144829	0.661329
     29464.58	0.12803	1796698.0	1554563.0	802486.0	0.144756	0.661235
     29465.08	0.13090	1832815.0	1586286.0	819148.0	0.144458	0.660886
     29465.58	0.13811	1922508.0	1664042.0	859654.0	0.144381	0.660475
     29466.08	0.13094	1838358.0	1591334.0	822148.0	0.144300	0.660408
     29466.58	0.13694	1919510.0	1661479.0	858635.0	0.144362	0.660120
     29467.08	0.16941	2401169.0	2077707.0	1074486.0	0.144691	0.659422
     29467.58	0.099123	1381100.0	1195570.0	618261.0	0.144257	0.659468
     29468.08	0.097688	1382884.0	1197007.0	619434.0	0.144347	0.658773
     29468.58	0.13267	1887627.0	1633994.0	845544.0	0.144293	0.658802
     29469.08	0.14151	1976695.0	1711058.0	885654.0	0.144314	0.658541
     29469.58	0.12670	1737429.0	1503733.0	778616.0	0.144456	0.658188
     29470.07	0.14884	2056138.0	1780146.0	921922.0	0.144134	0.657990
     29470.57	0.12977	1793314.0	1552386.0	804106.0	0.144272	0.657817
     29471.07	0.14943	2047948.0	1773208.0	918303.0	0.144048	0.658018
     29471.57	0.11015	1513761.0	1311075.0	679257.0	0.143750	0.657603
     29472.07	0.12337	1747289.0	1513467.0	783884.0	0.143662	0.657897
     29472.57	0.12914	1804846.0	1563309.0	810282.0	0.143671	0.657178
     29473.07	0.13298	1854886.0	1606232.0	832097.0	0.143932	0.657697
     29473.57	0.13025	1798409.0	1557759.0	807717.0	0.143654	0.656792
     29474.07	0.12517	1730744.0	1498822.0	777073.0	0.143872	0.656900
     29474.57	0.14704	1983605.0	1718203.0	891012.0	0.143637	0.656676
     29475.07	0.11491	1565050.0	1355764.0	703032.0	0.143553	0.656718
     29475.57	0.11967	1647113.0	1426816.0	740111.0	0.143579	0.656400
     29476.07	0.11183	1546387.0	1339568.0	695069.0	0.143574	0.656091
     29476.57	0.13393	1879824.0	1628498.0	844809.0	0.143520	0.656303
     29477.07	0.13517	1861354.0	1612440.0	836639.0	0.143556	0.656111
     29477.57	0.11032	1534583.0	1329239.0	689595.0	0.143652	0.656257
     29478.07	0.12569	1715299.0	1486273.0	771436.0	0.143316	0.655773
     29478.57	0.12833	1743849.0	1510359.0	783838.0	0.143747	0.655900
     29479.07	0.11257	1580004.0	1368733.0	709977.0	0.143542	0.656408
     29479.57	0.11233	1548520.0	1341548.0	696229.0	0.143475	0.655901
     29480.07	0.12875	1759971.0	1524810.0	791181.0	0.143428	0.656098
     29480.57	0.12466	1719096.0	1489648.0	773126.0	0.143259	0.655853
     29481.07	0.10881	1497703.0	1297784.0	673530.0	0.143274	0.655881
     29481.57	0.13584	1871834.0	1622811.0	841917.0	0.142759	0.656234
     29482.07	0.11852	1647744.0	1427806.0	741011.0	0.143268	0.655879
     29482.57	0.15473	2134091.0	1849610.0	960159.0	0.143066	0.655631
     29483.07	0.12810	1773909.0	1537191.0	797993.0	0.143229	0.655612
     29483.57	0.10884	1497454.0	1297778.0	673618.0	0.143113	0.655746
     29484.07	0.12991	1763690.0	1529264.0	793859.0	0.142622	0.655636
     29484.57	0.13257	1821288.0	1578975.0	819251.0	0.142768	0.656141
     29485.07	0.12639	1754066.0	1520496.0	789200.0	0.142900	0.655772
     29485.57	0.12084	1684812.0	1460288.0	758059.0	0.143020	0.655628
     29486.07	0.12030	1653187.0	1433443.0	743722.0	0.142626	0.656167
     29486.57	0.14482	2011226.0	1743830.0	904699.0	0.142661	0.656237
     29487.07	0.11675	1639713.0	1421626.0	737653.0	0.142720	0.656083
     29487.57	0.11327	1565451.0	1357554.0	704503.0	0.142489	0.655947
     29488.07	0.12747	1781352.0	1544583.0	801670.0	0.142619	0.655812
     29488.57	0.13144	1831153.0	1587780.0	824053.0	0.142609	0.655857
     29489.07	0.12592	1774497.0	1539100.0	798623.0	0.142319	0.656064
     29489.57	0.13035	1832927.0	1589290.0	824639.0	0.142627	0.656097
     29490.07	0.15808	2190961.0	1899719.0	985912.0	0.142634	0.655894
     29490.57	0.13084	1825459.0	1583054.0	821053.0	0.142476	0.656524
     29491.07	0.10197	1391382.0	1206626.0	626212.0	0.142469	0.655894
     29491.57	0.11429	1580480.0	1370649.0	711004.0	0.142444	0.656362
     29492.07	0.12498	1734709.0	1504925.0	780746.0	0.142097	0.656248
     29492.57	0.12290	1661470.0	1441290.0	747893.0	0.142164	0.656034
     29493.07	0.13414	1840640.0	1596864.0	828474.0	0.142072	0.656212
     29493.57	0.13422	1839874.0	1595884.0	828046.0	0.142269	0.656114
     29494.07	0.13815	1902475.0	1650570.0	856050.0	0.142035	0.656547
     29494.57	0.10104	1385178.0	1201628.0	623468.0	0.142151	0.656135
     29495.07	0.11763	1608042.0	1395051.0	723696.0	0.142086	0.656315
     29495.57	0.12347	1666341.0	1446064.0	750239.0	0.141785	0.656209
     29496.07	0.12181	1693058.0	1469178.0	762099.0	0.141833	0.656382
     29496.57	0.12390	1732576.0	1503222.0	779842.0	0.141999	0.656275
     29497.07	0.11380	1576826.0	1368645.0	709817.0	0.141593	0.656569
     29497.57	0.13899	1914226.0	1661201.0	861739.0	0.141773	0.656344
     29498.07	0.12189	1659316.0	1440107.0	747256.0	0.141688	0.656065
     29498.57	0.11665	1594329.0	1383307.0	717615.0	0.141976	0.656299
     29499.07	0.083911	1150365.0	998475.0	517768.0	0.141605	0.656702
     29499.57	0.11651	1542706.0	1338823.0	694524.0	0.141747	0.656319
     29500.07	0.12666	1736419.0	1507070.0	781570.0	0.141658	0.656618
     29500.58	0.11395	1556145.0	1350634.0	700871.0	0.141637	0.656006
     29501.08	0.13401	1828141.0	1586856.0	823494.0	0.141545	0.655954
     29501.58	0.12099	1670812.0	1450223.0	752482.0	0.141592	0.656096
     29502.08	0.12897	1760061.0	1527872.0	792852.0	0.141473	0.655995
     29502.58	0.13033	1811842.0	1572973.0	816188.0	0.141377	0.656078
     29503.08	0.12990	1800810.0	1562928.0	811140.0	0.141676	0.655876
     29503.58	0.13127	1822025.0	1581567.0	820763.0	0.141532	0.655937
     29504.08	0.12257	1680565.0	1458927.0	756977.0	0.141429	0.656124
     29504.58	0.13508	1859085.0	1614333.0	837988.0	0.141163	0.655673
     29505.08	0.13792	1896122.0	1646133.0	854385.0	0.141382	0.655802
     29505.58	0.14424	2019891.0	1753620.0	910198.0	0.141361	0.655775
     29506.08	0.15524	2137939.0	1856241.0	963610.0	0.141289	0.655622
     29506.58	0.090961	1236095.0	1073037.0	557377.0	0.141464	0.655006
     29507.08	0.13040	1789143.0	1553640.0	806511.0	0.141136	0.655638
     29507.58	0.11475	1584634.0	1376079.0	714694.0	0.141115	0.655139
     29508.09	0.13582	1850594.0	1607325.0	835190.0	0.140935	0.654667
     29508.59	0.15500	2125776.0	1846323.0	958765.0	0.140941	0.655305
     29509.09	0.15079	2078013.0	1804569.0	937617.0	0.141090	0.654736
     29509.59	0.18797	2511657.0	2181507.0	1133438.0	0.140927	0.654760
     29510.09	0.10697	1484187.0	1288766.0	669867.0	0.141182	0.654361
     29510.59	0.066557	927584.0	805547.0	418655.0	0.141062	0.654474
     29511.09	0.12739	1690679.0	1468423.0	763702.0	0.140941	0.653767
     29511.59	0.13153	1811063.0	1573033.0	817346.0	0.140908	0.654698
     29512.09	0.12456	1700396.0	1476875.0	768594.0	0.140933	0.653121
     29512.59	0.12658	1748204.0	1518384.0	789653.0	0.140942	0.653808
     29513.09	0.12513	1708045.0	1483482.0	772107.0	0.140957	0.653024
     29513.60	0.12647	1721431.0	1494874.0	777857.0	0.141114	0.653254
     29514.10	0.12358	1685982.0	1464736.0	762122.0	0.140673	0.653324
     29514.60	0.12317	1661586.0	1443337.0	751291.0	0.140815	0.652920
     29515.10	0.12901	1760515.0	1529227.0	795965.0	0.140844	0.652962
     29515.60	0.12602	1736092.0	1508106.0	785403.0	0.140782	0.652413
     29516.10	0.12737	1775519.0	1542376.0	802881.0	0.140769	0.652873
     29516.60	0.12264	1690780.0	1468846.0	765122.0	0.140713	0.652197
     29517.10	0.12216	1677613.0	1457466.0	759253.0	0.140673	0.652120
     29517.60	0.11933	1625558.0	1412327.0	736164.0	0.140612	0.651541
     29518.10	0.12065	1657846.0	1440152.0	750847.0	0.140771	0.651302
     29518.61	0.11901	1625510.0	1412044.0	736490.0	0.140783	0.650898
     29519.11	0.11859	1598625.0	1388865.0	724644.0	0.140657	0.650562
     29519.61	0.11975	1657044.0	1439625.0	751157.0	0.140653	0.650523
     29520.11	0.12506	1700508.0	1477404.0	770798.0	0.140641	0.650615
     29520.61	0.13369	1827725.0	1588148.0	828814.0	0.140503	0.650328
     29521.11	0.12953	1793211.0	1558172.0	813164.0	0.140495	0.650336
     29521.61	0.13502	1880874.0	1634724.0	853773.0	0.140263	0.649564
     29522.11	0.12309	1676645.0	1456883.0	760979.0	0.140496	0.649449
     29522.62	0.12441	1708335.0	1484612.0	775693.0	0.140366	0.649152
     29523.12	0.14260	1961106.0	1704376.0	890735.0	0.140310	0.648907
     29523.62	0.13223	1830775.0	1590430.0	831635.0	0.140735	0.648366
     29524.12	0.13557	1848342.0	1605950.0	839590.0	0.140574	0.648557
     29524.62	0.11236	1560776.0	1356164.0	709860.0	0.140523	0.647348
     29525.12	0.11634	1623645.0	1411061.0	738487.0	0.140332	0.647494
     29525.62	0.11982	1647541.0	1431456.0	749124.0	0.140592	0.647543
     29526.12	0.12006	1661260.0	1443503.0	755888.0	0.140504	0.646935
     29526.63	0.12530	1737820.0	1510193.0	790769.0	0.140394	0.646987
     29527.13	0.12806	1780267.0	1546973.0	810584.0	0.140463	0.646300
     29527.63	0.12534	1720630.0	1495353.0	783959.0	0.140328	0.645761
     29528.13	0.13656	1868080.0	1623395.0	851265.0	0.140392	0.645551
     29528.63	0.13197	1836743.0	1596604.0	837283.0	0.140115	0.645472
     29529.13	0.12268	1679616.0	1459993.0	765678.0	0.140134	0.645425
     29529.64	0.12428	1717062.0	1492238.0	783058.0	0.140338	0.644826
     29530.14	0.13456	1867709.0	1623793.0	852092.0	0.139948	0.644826
     29530.64	0.12503	1734699.0	1507949.0	791570.0	0.140083	0.644487
     29531.14	0.12292	1725862.0	1500025.0	787237.0	0.140245	0.644708
     29531.64	0.12457	1698209.0	1476150.0	775574.0	0.140137	0.643589
     29532.14	0.12936	1767833.0	1536683.0	807426.0	0.140128	0.643530
     29532.64	0.12804	1750993.0	1522175.0	800312.0	0.140043	0.642894
     29533.15	0.11979	1625628.0	1412787.0	742828.0	0.140330	0.642855
     29533.65	0.12412	1729463.0	1504086.0	790820.0	0.139626	0.642870
     29534.15	0.13350	1858799.0	1615641.0	849779.0	0.140199	0.642511
     29534.65	0.11210	1572074.0	1366966.0	719237.0	0.139802	0.642158
     29535.15	0.11716	1624536.0	1412563.0	743457.0	0.139816	0.641850
     29535.65	0.12304	1680720.0	1461211.0	769568.0	0.139957	0.641192
     29536.16	0.11064	1508478.0	1311884.0	690996.0	0.139637	0.641086
     29536.66	0.11528	1611631.0	1400959.0	738289.0	0.140090	0.640577
     29537.16	0.11954	1667012.0	1449626.0	763549.0	0.139727	0.641084
     29537.66	0.10925	1506969.0	1310441.0	690681.0	0.139737	0.640441
     29538.16	0.10448	1461913.0	1271654.0	670087.0	0.139427	0.640666
     29538.67	0.12894	1783627.0	1550900.0	817792.0	0.139814	0.639983
     29539.17	0.12204	1664368.0	1447136.0	763170.0	0.139859	0.639861
     29539.67	0.11984	1630173.0	1417824.0	748356.0	0.139563	0.639000
     29540.17	0.13642	1906398.0	1658194.0	875235.0	0.139487	0.638992
     29540.67	0.11220	1558947.0	1355859.0	715892.0	0.139575	0.638661
     29541.17	0.13397	1825712.0	1587734.0	838618.0	0.139662	0.638308
     29541.68	0.12985	1794407.0	1560590.0	824499.0	0.139611	0.638043
     29542.18	0.13859	1914316.0	1665055.0	879766.0	0.139502	0.637957
     29542.68	0.11603	1601773.0	1393456.0	736371.0	0.139324	0.637808
     29543.18	0.13993	1907434.0	1658644.0	877412.0	0.139758	0.636779
     29543.68	0.13199	1828136.0	1590431.0	840925.0	0.139292	0.637258
     29544.19	0.15618	2132023.0	1854841.0	981182.0	0.139272	0.636796
     29544.69	0.11686	1584392.0	1378208.0	729421.0	0.139417	0.636288
     29545.19	0.11487	1580359.0	1374995.0	727612.0	0.139202	0.636437
     29545.69	0.13346	1818146.0	1581874.0	837319.0	0.139207	0.636160
     29546.19	0.13965	1906753.0	1658842.0	878478.0	0.139282	0.635684
     29546.70	0.11808	1602347.0	1394133.0	738248.0	0.139197	0.635748
     29547.20	0.13790	1882766.0	1638365.0	867990.0	0.139043	0.635274
     29547.70	0.14428	1953155.0	1699674.0	900366.0	0.139010	0.635390
     29548.20	0.13886	1900931.0	1654356.0	876585.0	0.138932	0.635133
     29548.71	0.11665	1573049.0	1368901.0	725356.0	0.139008	0.635101
     29549.21	0.12866	1754542.0	1527015.0	809398.0	0.138893	0.634779
     29549.71	0.13153	1799768.0	1566533.0	830007.0	0.138793	0.635186
     29550.21	0.13027	1815448.0	1580221.0	838053.0	0.138768	0.634239
     29550.71	0.12212	1652649.0	1438456.0	763011.0	0.138809	0.634053
     29551.22	0.13039	1753502.0	1526121.0	809957.0	0.138886	0.633503
     29551.72	0.12663	1732164.0	1507568.0	799810.0	0.138874	0.633879
     29552.22	0.12215	1688354.0	1469693.0	780019.0	0.138701	0.633491
     29552.72	0.12141	1689860.0	1471411.0	781137.0	0.138424	0.633227
     29553.23	0.12325	1693180.0	1473792.0	782296.0	0.138770	0.633361
     29553.73	0.13070	1774416.0	1544881.0	820298.0	0.138524	0.633034
     29554.23	0.13899	1914360.0	1666545.0	884976.0	0.138631	0.632947
     29554.73	0.12149	1640583.0	1428510.0	758286.0	0.138420	0.633327
     29555.24	0.13014	1762520.0	1534889.0	815378.0	0.138287	0.632562
     29555.74	0.11282	1549968.0	1349607.0	717056.0	0.138421	0.632415
     29556.24	0.12288	1669531.0	1453533.0	772241.0	0.138546	0.632456
     29556.74	0.12049	1642552.0	1430444.0	759914.0	0.138266	0.632535
     29557.24	0.12070	1644443.0	1431600.0	760890.0	0.138609	0.632059
     29557.75	0.11782	1586334.0	1381055.0	733948.0	0.138578	0.632165
     29558.25	0.11956	1622014.0	1412790.0	750912.0	0.138102	0.632033
     29558.75	0.12382	1708497.0	1488221.0	791167.0	0.138033	0.631828
     29559.26	0.12784	1719111.0	1496925.0	796041.0	0.138394	0.631518
     29559.76	0.12762	1724841.0	1502264.0	798641.0	0.138162	0.631817
     29560.26	0.12040	1634753.0	1423870.0	757339.0	0.138113	0.631323
     29560.76	0.12687	1740618.0	1515855.0	806250.0	0.138261	0.631341
     29561.27	0.12767	1747053.0	1521792.0	809133.0	0.138042	0.631681
     29561.77	0.12424	1725269.0	1502668.0	799127.0	0.138141	0.631478
     29562.27	0.14124	1961903.0	1709080.0	909285.0	0.137960	0.631052
     29562.77	0.12775	1759618.0	1532794.0	815301.0	0.138005	0.631290
     29563.28	0.14502	1980002.0	1724937.0	917532.0	0.137907	0.631258
     29563.78	0.17552	2371557.0	2065425.0	1099143.0	0.138211	0.630805
     29564.28	0.093719	1269389.0	1105851.0	588173.0	0.137921	0.631349
     29564.78	0.061278	843181.0	734797.0	390889.0	0.137587	0.631171
     29565.29	0.14472	2003354.0	1745824.0	928965.0	0.137596	0.630911
     29565.79	0.11869	1611565.0	1403817.0	747384.0	0.138011	0.630371
     29566.29	0.13287	1829497.0	1593756.0	848345.0	0.137948	0.630561
     29566.80	0.13287	1796355.0	1564975.0	833411.0	0.137890	0.630098
     29567.30	0.16136	2189804.0	1908240.0	1015580.0	0.137631	0.630721
     29567.80	0.10418	1411219.0	1229914.0	654654.0	0.137510	0.630593
     29568.30	0.10915	1466218.0	1277372.0	680390.0	0.137881	0.629894
     29568.81	0.13275	1834458.0	1598579.0	850965.0	0.137634	0.630499
     29569.31	0.12603	1696969.0	1478611.0	787362.0	0.137741	0.630170
     29569.81	0.13171	1775255.0	1547089.0	823708.0	0.137569	0.630314
     29570.32	0.12734	1706377.0	1487308.0	792025.0	0.137405	0.630130
     29570.82	0.13611	1882453.0	1640781.0	873520.0	0.137403	0.630397
     29571.32	0.11495	1520597.0	1325294.0	705963.0	0.137469	0.629827
     29571.82	0.13806	1869372.0	1629346.0	867597.0	0.137424	0.630207
     29572.33	0.11409	1532261.0	1335719.0	711101.0	0.137275	0.630411
     29572.83	0.12886	1756890.0	1531403.0	815756.0	0.137361	0.629824
     29573.33	0.12091	1614947.0	1407533.0	749835.0	0.137464	0.629741
     29573.84	0.12224	1642859.0	1432305.0	762850.0	0.137153	0.629979
     29574.34	0.12266	1677837.0	1462388.0	779049.0	0.137435	0.629752
     29574.84	0.11701	1596295.0	1391426.0	741496.0	0.137356	0.629415
     29575.35	0.12258	1694786.0	1477443.0	786927.0	0.137244	0.629933
     29575.85	0.11847	1614473.0	1407472.0	749464.0	0.137213	0.630192
     29576.35	0.11114	1524399.0	1328701.0	708249.0	0.137398	0.629161
     29576.85	0.11651	1571730.0	1370399.0	730279.0	0.137075	0.629431
     29577.36	0.11351	1534408.0	1337578.0	713114.0	0.137284	0.628974
     29577.86	0.11409	1528425.0	1332926.0	710304.0	0.136861	0.629439
     29578.36	0.12310	1681546.0	1465872.0	781348.0	0.137263	0.629185
     29578.87	0.11960	1653717.0	1441820.0	768517.0	0.137119	0.629199
     29579.37	0.12515	1735135.0	1512704.0	806020.0	0.137186	0.629546
     29579.87	0.14190	1903397.0	1659846.0	884700.0	0.136915	0.629232
     29580.38	0.12660	1698127.0	1480880.0	789321.0	0.136889	0.629219
     29580.88	0.10820	1479009.0	1289648.0	687570.0	0.137003	0.628961
     29581.38	0.12060	1615968.0	1409072.0	750935.0	0.137003	0.629368
     29581.89	0.14008	1886977.0	1646148.0	877674.0	0.136538	0.628918
     29582.39	0.13324	1788582.0	1559790.0	831964.0	0.136872	0.628517
     29582.89	0.12249	1676085.0	1461686.0	779395.0	0.136870	0.628828
     29583.40	0.14104	1918705.0	1673655.0	892281.0	0.136641	0.628984
     29583.90	0.12719	1707210.0	1489113.0	794570.0	0.136680	0.628135
     29584.40	0.11085	1487392.0	1297246.0	692044.0	0.136781	0.628349
     29584.91	0.12882	1711473.0	1493056.0	796376.0	0.136529	0.628509
     29585.41	0.12661	1736867.0	1515325.0	808230.0	0.136453	0.628539
     29585.91	0.12821	1700025.0	1483071.0	791176.0	0.136528	0.628350
     29586.42	0.13511	1808583.0	1577988.0	842031.0	0.136393	0.628089
     29586.92	0.14220	1890030.0	1648994.0	879493.0	0.136427	0.628575
     29587.42	0.13061	1763053.0	1537984.0	820680.0	0.136574	0.628094
     29587.93	0.14554	1961260.0	1710964.0	912854.0	0.136530	0.628236
     29588.43	0.13033	1748531.0	1525559.0	814148.0	0.136415	0.627974
     29588.93	0.12783	1724577.0	1504779.0	802922.0	0.136336	0.628144
     29589.44	0.11892	1571359.0	1370466.0	731672.0	0.136790	0.627574
     29589.94	0.14127	1902048.0	1659519.0	886151.0	0.136403	0.627396
     29590.45	0.13112	1788281.0	1560497.0	833164.0	0.136250	0.627529
     29590.95	0.14272	1898136.0	1655702.0	884305.0	0.136647	0.627178
     29591.45	0.11275	1497371.0	1306888.0	697910.0	0.136062	0.627314
     29591.96	0.13037	1782350.0	1555753.0	830818.0	0.135973	0.627304
     29592.46	0.11973	1631938.0	1424438.0	760683.0	0.135991	0.627316
     29592.96	0.12280	1664304.0	1452586.0	776088.0	0.136062	0.626835
     29593.47	0.12761	1743579.0	1521528.0	812808.0	0.136225	0.626975
     29593.97	0.13002	1810506.0	1580676.0	844370.0	0.135754	0.627017
     29594.48	0.12661	1758321.0	1535148.0	820558.0	0.135733	0.626397
     29594.98	0.12591	1704735.0	1488377.0	795504.0	0.135723	0.626466
     29595.48	0.12167	1671932.0	1458916.0	779720.0	0.136286	0.626514
     29595.99	0.11505	1600691.0	1397587.0	746901.0	0.135688	0.626570
     29596.49	0.12246	1668913.0	1456862.0	779099.0	0.135888	0.625902
     29596.99	0.12607	1710549.0	1493335.0	798606.0	0.135802	0.625899
     29597.50	0.11576	1566313.0	1367464.0	731092.0	0.135767	0.626174
     29598.00	0.12937	1763832.0	1540501.0	823795.0	0.135381	0.625941
     29598.51	0.12201	1667945.0	1456151.0	779181.0	0.135796	0.625309
     29599.01	0.11121	1480358.0	1292419.0	691717.0	0.135768	0.625094
     29599.51	0.13411	1801559.0	1573217.0	841601.0	0.135530	0.625572
     29600.02	0.12282	1690837.0	1476589.0	790062.0	0.135489	0.625379
     29600.52	0.13168	1775335.0	1550407.0	829852.0	0.135472	0.625025
     29601.03	0.11876	1600509.0	1397745.0	748363.0	0.135461	0.624727
     29601.53	0.13061	1774923.0	1550340.0	830095.0	0.135283	0.624689
     29602.03	0.14422	1939072.0	1693152.0	906472.0	0.135618	0.624787
     29602.54	0.11958	1596917.0	1394684.0	746830.0	0.135407	0.624586
     29603.04	0.12566	1694292.0	1479819.0	792712.0	0.135345	0.624215
     29603.55	0.13348	1756950.0	1534665.0	822101.0	0.135267	0.624204
     29604.05	0.10993	1440145.0	1257627.0	673905.0	0.135517	0.623893
     29604.55	0.12910	1693042.0	1478625.0	792343.0	0.135414	0.623874
     29605.06	0.12011	1602964.0	1399893.0	750244.0	0.135459	0.623753
     29605.56	0.12974	1737821.0	1518463.0	813831.0	0.134933	0.623701
     29606.07	0.12399	1654708.0	1445833.0	775045.0	0.134939	0.623520
     29606.57	0.12850	1743334.0	1522791.0	816795.0	0.135255	0.622912
     29607.07	0.13200	1739623.0	1519866.0	815207.0	0.135046	0.622935
     29607.58	0.13585	1835937.0	1603834.0	860324.0	0.135158	0.622843
     29608.08	0.12970	1738655.0	1519141.0	815246.0	0.134967	0.622410
     29608.59	0.12711	1678772.0	1466658.0	787340.0	0.135076	0.622081
     29609.09	0.13861	1859990.0	1624997.0	872704.0	0.135065	0.621665
     29609.60	0.12733	1699196.0	1484719.0	797167.0	0.134930	0.621917
     29610.10	0.12578	1693156.0	1479492.0	794507.0	0.134895	0.621732
     29610.60	0.12550	1670448.0	1459628.0	783872.0	0.134910	0.621691
     29611.11	0.13424	1796359.0	1569548.0	843546.0	0.134974	0.620929
     29611.61	0.11584	1558505.0	1362016.0	731892.0	0.134761	0.621088
     29612.12	0.12986	1713105.0	1496951.0	804529.0	0.134877	0.620929
     29612.62	0.12119	1642809.0	1435548.0	771736.0	0.134861	0.620659
     29613.13	0.11593	1561423.0	1364733.0	733821.0	0.134639	0.620449
     29613.63	0.12807	1721799.0	1504560.0	809201.0	0.134869	0.620208
     29614.13	0.11521	1534515.0	1341682.0	721551.0	0.134290	0.620276
     29614.64	0.12090	1633502.0	1427761.0	767927.0	0.134619	0.620168
     29615.14	0.12423	1666707.0	1456538.0	783894.0	0.134787	0.619544
     29615.65	0.11939	1590295.0	1389733.0	748148.0	0.134808	0.619266
     29616.15	0.11092	1468410.0	1283023.0	690638.0	0.134961	0.619358
     29616.66	0.11270	1508788.0	1318672.0	710085.0	0.134682	0.618996
     29617.16	0.11177	1501489.0	1312691.0	706729.0	0.134378	0.619187
     29617.67	0.11718	1561985.0	1365382.0	735325.0	0.134523	0.618877
     29618.17	0.12258	1620191.0	1416244.0	763008.0	0.134536	0.618495
     29618.68	0.12711	1720724.0	1504064.0	810609.0	0.134574	0.618140
     29619.18	0.11752	1567882.0	1370220.0	739070.0	0.134754	0.617334
     29619.68	0.11675	1558168.0	1362254.0	734346.0	0.134370	0.617916
     29620.19	0.12349	1620595.0	1416786.0	763895.0	0.134402	0.617716
     29620.69	0.13198	1763710.0	1542134.0	831958.0	0.134252	0.617140
     29621.20	0.12819	1719553.0	1503724.0	811005.0	0.134120	0.617426
     29621.70	0.12145	1629263.0	1424412.0	768769.0	0.134369	0.616724
     29622.21	0.13982	1877879.0	1641930.0	886002.0	0.134271	0.616908
     29622.71	0.12767	1753147.0	1532560.0	827346.0	0.134473	0.616472
     29623.22	0.13020	1743918.0	1525218.0	823366.0	0.133997	0.616492
     29623.72	0.14337	1887151.0	1649745.0	891371.0	0.134448	0.615615
     29624.23	0.11814	1608329.0	1406631.0	759616.0	0.133998	0.616140
     29624.73	0.10928	1479964.0	1294394.0	699177.0	0.133975	0.615894
     29625.24	0.13274	1742492.0	1523615.0	823218.0	0.134230	0.615620
     29625.74	0.13337	1812652.0	1584764.0	856363.0	0.134355	0.615496
     29626.25	0.12622	1683036.0	1471753.0	796067.0	0.134145	0.614526
     29626.75	0.13928	1844730.0	1613641.0	872564.0	0.133840	0.614812
     29627.26	0.13016	1719026.0	1503497.0	813073.0	0.133964	0.614728
     29627.76	0.14315	1909612.0	1670128.0	903529.0	0.134000	0.614347
     29628.27	0.12042	1619776.0	1417016.0	766730.0	0.133735	0.614174
     29628.77	0.13347	1796219.0	1571397.0	850503.0	0.133719	0.613892
     29629.28	0.12740	1675310.0	1465356.0	793406.0	0.133900	0.613518
     29629.78	0.13751	1828830.0	1599911.0	865967.0	0.133728	0.613856
     29630.28	0.13692	1805635.0	1579019.0	855247.0	0.134109	0.613169
     29630.79	0.12545	1661850.0	1453564.0	787097.0	0.133913	0.613422
     29631.29	0.13026	1732447.0	1515802.0	821224.0	0.133590	0.612904
     29631.80	0.12302	1645659.0	1439712.0	779959.0	0.133698	0.612957
     29632.31	0.12324	1642938.0	1437633.0	779268.0	0.133488	0.612398
     29632.81	0.12811	1711810.0	1497771.0	811908.0	0.133573	0.612346
     29633.32	0.11827	1562401.0	1366770.0	741201.0	0.133773	0.611934
     29633.82	0.12807	1699685.0	1487138.0	806613.0	0.133589	0.611765
     29634.33	0.13140	1746920.0	1528367.0	829107.0	0.133654	0.611606
     29634.83	0.12379	1634019.0	1429676.0	775968.0	0.133595	0.611092
     29635.34	0.12561	1672650.0	1463188.0	794020.0	0.133792	0.611264
     29635.84	0.12600	1639480.0	1434446.0	778495.0	0.133600	0.611171
     29636.35	0.11953	1570570.0	1374236.0	745899.0	0.133541	0.611063
     29636.85	0.12782	1689578.0	1478507.0	802969.0	0.133446	0.610472
     29637.36	0.11594	1554408.0	1360267.0	738442.0	0.133414	0.610894
     29637.86	0.12663	1684657.0	1474362.0	800872.0	0.133337	0.610279
     29638.37	0.12150	1609868.0	1409471.0	765386.0	0.132938	0.610589
     29638.87	0.11239	1488919.0	1303180.0	707687.0	0.133243	0.610561
     29639.38	0.12740	1686575.0	1475978.0	801725.0	0.133379	0.610310
     29639.88	0.12373	1630668.0	1427271.0	775648.0	0.133226	0.609821
     29640.39	0.14023	1881277.0	1646476.0	894656.0	0.133314	0.609953
     29640.89	0.11167	1487696.0	1302437.0	707987.0	0.132991	0.609567
     29641.40	0.12314	1622202.0	1419870.0	772225.0	0.133219	0.609045
     29641.90	0.12337	1648605.0	1443270.0	784898.0	0.133018	0.609113
     29642.41	0.14189	1910354.0	1672456.0	909306.0	0.132995	0.609367
     29642.91	0.13139	1759647.0	1540513.0	837924.0	0.132998	0.608943
     29643.42	0.11879	1578021.0	1381546.0	751672.0	0.132968	0.608658
     29643.93	0.13176	1740243.0	1523344.0	828867.0	0.133117	0.608603
     29644.43	0.12611	1641799.0	1437138.0	782317.0	0.133139	0.608149
     29644.94	0.11759	1560915.0	1367168.0	743866.0	0.132531	0.608636
     29645.44	0.12442	1654689.0	1448658.0	788489.0	0.132975	0.608274
     29645.95	0.11996	1561149.0	1366584.0	744312.0	0.133108	0.607609
     29646.45	0.13200	1729569.0	1514328.0	824804.0	0.132900	0.607581
     29646.96	0.12063	1587153.0	1389673.0	756499.0	0.132873	0.608123
     29647.46	0.12832	1705463.0	1493290.0	813381.0	0.132855	0.607537
     29647.97	0.12763	1636552.0	1433254.0	780649.0	0.132644	0.607577
     29648.48	0.13850	1831935.0	1604347.0	873899.0	0.132656	0.607507
     29648.98	0.13035	1686933.0	1477709.0	804925.0	0.132419	0.607499
     29649.49	0.11569	1521119.0	1332123.0	725813.0	0.132672	0.607237
     29649.99	0.13180	1746462.0	1529943.0	833421.0	0.132362	0.607447
     29650.50	0.13161	1747283.0	1530472.0	833844.0	0.132486	0.607285
     29651.00	0.12909	1733289.0	1518114.0	827586.0	0.132552	0.606711
     29651.51	0.12961	1700801.0	1489627.0	812115.0	0.132574	0.606639
     29652.02	0.13048	1701491.0	1490460.0	812324.0	0.132420	0.606941
     29652.52	0.15682	2124388.0	1860631.0	1014354.0	0.132568	0.606664
     29653.03	0.10003	1329551.0	1164684.0	635013.0	0.132391	0.606560
     29653.53	0.12692	1672937.0	1465786.0	799755.0	0.132189	0.605841
     29654.04	0.11249	1504505.0	1318192.0	718651.0	0.132203	0.606641
     29654.54	0.12355	1654687.0	1449573.0	790731.0	0.132343	0.606066
     29655.05	0.12294	1659018.0	1453594.0	792560.0	0.132187	0.606526
     29655.56	0.14268	1903245.0	1667307.0	909355.0	0.132351	0.606229
     29656.06	0.11390	1532781.0	1342876.0	732503.0	0.132270	0.606101
     29656.57	0.15527	2082988.0	1824876.0	995564.0	0.132291	0.605958
     29657.07	0.087954	1171247.0	1026206.0	559608.0	0.132200	0.606387
     29657.58	0.10504	1395130.0	1222312.0	666915.0	0.132243	0.605837
     29658.09	0.10052	1317219.0	1154375.0	629678.0	0.131964	0.606106
     29658.59	0.11894	1573254.0	1378764.0	752618.0	0.131959	0.605385
     29659.10	0.12272	1639865.0	1437423.0	784541.0	0.131762	0.605508
     29659.60	0.11648	1541421.0	1350825.0	737323.0	0.131989	0.605445
     29660.11	0.12425	1636351.0	1434147.0	782850.0	0.131899	0.605384
     29660.62	0.12643	1714947.0	1502855.0	820425.0	0.132016	0.605299
     29661.12	0.11889	1578789.0	1383729.0	755392.0	0.131876	0.605300
     29661.63	0.12206	1651992.0	1448139.0	790456.0	0.131703	0.605425
     29662.13	0.13435	1784043.0	1563468.0	853792.0	0.131976	0.604974
     29662.64	0.12455	1650748.0	1447094.0	790070.0	0.131671	0.605191
     29663.15	0.13140	1780227.0	1560328.0	852047.0	0.131845	0.605010
     29663.65	0.13117	1779334.0	1560153.0	852338.0	0.131455	0.604556
     29664.16	0.14127	1877645.0	1646122.0	899020.0	0.131596	0.604872
     29664.66	0.16932	2241459.0	1964646.0	1073350.0	0.131815	0.604527
     29665.17	0.13551	1802385.0	1580601.0	862919.0	0.131306	0.605240
     29665.68	0.099295	1322541.0	1159513.0	633608.0	0.131555	0.604325
     29666.18	0.096962	1267496.0	1111112.0	607239.0	0.131682	0.604194
     29666.69	0.12426	1649302.0	1445919.0	789781.0	0.131607	0.604745
     29667.19	0.13477	1808070.0	1585099.0	865894.0	0.131613	0.604640
     29667.70	0.13083	1714450.0	1503316.0	821736.0	0.131419	0.604009
     29668.21	0.15065	1983103.0	1738780.0	950300.0	0.131479	0.604161
     29668.71	0.13919	1820454.0	1596054.0	872424.0	0.131552	0.604014
     29669.22	0.11583	1543411.0	1353423.0	739737.0	0.131358	0.604098
     29669.73	0.12428	1614398.0	1415411.0	773696.0	0.131542	0.603996
     29670.23	0.12888	1690001.0	1482386.0	810346.0	0.131076	0.603947
     29670.74	0.13215	1754127.0	1538181.0	841101.0	0.131371	0.603644
     29671.25	0.13530	1727422.0	1514717.0	828087.0	0.131402	0.603866
     29671.75	0.13010	1696545.0	1487897.0	813747.0	0.131230	0.603469
     29672.26	0.12399	1601699.0	1405131.0	768502.0	0.130934	0.603443
     29672.76	0.14199	1898477.0	1665150.0	910921.0	0.131137	0.603214
     29673.27	0.11311	1484130.0	1301711.0	712233.0	0.131149	0.603030
     29673.78	0.12469	1634673.0	1433773.0	784455.0	0.131133	0.603076
     29674.28	0.12497	1612019.0	1414082.0	773674.0	0.131007	0.603085
     29674.79	0.13094	1714060.0	1503551.0	822852.0	0.131035	0.602809
     29675.30	0.12204	1607981.0	1410618.0	771877.0	0.130951	0.602958
     29675.80	0.12505	1704975.0	1495752.0	818621.0	0.130921	0.602763
     29676.31	0.13138	1731631.0	1518861.0	831825.0	0.131103	0.602094
     29676.82	0.12203	1593476.0	1398014.0	765049.0	0.130865	0.602868
     29677.32	0.11808	1566205.0	1374087.0	752307.0	0.130866	0.602400
     29677.83	0.12330	1603869.0	1407090.0	770508.0	0.130895	0.602229
     29678.34	0.12382	1609947.0	1412615.0	773645.0	0.130759	0.602085
     29678.84	0.11080	1458486.0	1279880.0	701013.0	0.130633	0.601995
     29679.35	0.12619	1671957.0	1467120.0	803383.0	0.130694	0.602225
     29679.86	0.12069	1613027.0	1415184.0	775458.0	0.130853	0.601561
     29680.36	0.12285	1606402.0	1409073.0	771787.0	0.131065	0.601979
     29680.87	0.11691	1525825.0	1339072.0	733475.0	0.130558	0.601939
     29681.38	0.11920	1578316.0	1384990.0	758775.0	0.130666	0.601743
     29681.88	0.13495	1766908.0	1550683.0	849588.0	0.130536	0.601699
     29682.39	0.12675	1671463.0	1466692.0	803643.0	0.130690	0.601610
     29682.90	0.13328	1762004.0	1546304.0	847209.0	0.130584	0.601675
     29683.40	0.13248	1724024.0	1512466.0	828913.0	0.130920	0.601382
     29683.91	0.12611	1683087.0	1477281.0	810169.0	0.130426	0.600716
     29684.42	0.13375	1749623.0	1535466.0	841395.0	0.130566	0.601528
     29684.92	0.11457	1485868.0	1304020.0	714979.0	0.130547	0.600954
     29685.43	0.12690	1607309.0	1410416.0	773542.0	0.130677	0.600660
     29685.94	0.12205	1600835.0	1404853.0	770616.0	0.130593	0.600498
     29686.44	0.13160	1740664.0	1528043.0	838059.0	0.130279	0.600655
     29686.95	0.11561	1516071.0	1330933.0	730120.0	0.130242	0.600427
     29687.46	0.13346	1699928.0	1492563.0	818809.0	0.130091	0.600399
     29687.97	0.12373	1594874.0	1400001.0	768140.0	0.130322	0.600256
     29688.47	0.12638	1619277.0	1421334.0	780323.0	0.130384	0.599643
     29688.98	0.12912	1702799.0	1494737.0	820264.0	0.130323	0.600079
     29689.49	0.12996	1683237.0	1478489.0	811448.0	0.129698	0.599956
     29689.99	0.12430	1628608.0	1430065.0	785111.0	0.130006	0.599650
     29690.50	0.13377	1729626.0	1518675.0	833723.0	0.130067	0.599692
     29691.01	0.12514	1633175.0	1434031.0	787551.0	0.130037	0.599317
     29691.51	0.12949	1725859.0	1515573.0	832191.0	0.129931	0.599487
     29692.02	0.13697	1789162.0	1570967.0	863007.0	0.130056	0.599024
     29692.53	0.11792	1536422.0	1348560.0	740634.0	0.130419	0.599286
     29693.04	0.11920	1567729.0	1376716.0	756479.0	0.129927	0.598781
     29693.54	0.13090	1681478.0	1476848.0	811390.0	0.129763	0.598917
     29694.05	0.11697	1526382.0	1340212.0	735906.0	0.130072	0.599481
     29694.56	0.12746	1665408.0	1462750.0	803635.0	0.129752	0.598928
     29695.06	0.12725	1661685.0	1459490.0	802233.0	0.129745	0.598443
     29695.57	0.11683	1523775.0	1338645.0	735481.0	0.129533	0.598888
     29696.08	0.12869	1689538.0	1484076.0	815881.0	0.129663	0.598279
     29696.59	0.10781	1417578.0	1244916.0	684453.0	0.129882	0.598203
     29697.09	0.11217	1460595.0	1282716.0	705207.0	0.129864	0.598244
     29697.60	0.11963	1561175.0	1371436.0	754446.0	0.129580	0.597630
     29698.11	0.11777	1545299.0	1357839.0	746678.0	0.129323	0.598016
     29698.62	0.11338	1496941.0	1314917.0	723259.0	0.129650	0.597761
     29699.12	0.12212	1577274.0	1385515.0	762421.0	0.129626	0.597328
     29699.63	0.11465	1499758.0	1317434.0	724883.0	0.129618	0.597431
     29700.14	0.11878	1559109.0	1369898.0	753723.0	0.129378	0.597467
     29700.65	0.11781	1520789.0	1336072.0	735508.0	0.129495	0.596928
     29701.15	0.12709	1653350.0	1453087.0	799681.0	0.129113	0.597233
     29701.66	0.12021	1558380.0	1369580.0	753970.0	0.129143	0.596907
     29702.17	0.12852	1691537.0	1486510.0	818551.0	0.129206	0.596651
     29702.67	0.12329	1645498.0	1446449.0	796056.0	0.128931	0.597197
     29703.18	0.14249	1869949.0	1643091.0	904765.0	0.129332	0.596659
     29703.69	0.13201	1738356.0	1527697.0	841334.0	0.129178	0.596528
     29704.20	0.13128	1685724.0	1481312.0	815919.0	0.129267	0.596368
     29704.70	0.12287	1609079.0	1414287.0	778877.0	0.129036	0.596528
     29705.21	0.13701	1818953.0	1598539.0	880553.0	0.129171	0.596295
     29705.72	0.11547	1528867.0	1343538.0	740342.0	0.129221	0.595949
     29706.23	0.12833	1691705.0	1486637.0	819805.0	0.129220	0.595205
     29706.74	0.13077	1727845.0	1518735.0	837114.0	0.128997	0.595673
     29707.24	0.13746	1798436.0	1580377.0	871394.0	0.129254	0.595324
     29707.75	0.12526	1615079.0	1419126.0	782633.0	0.129343	0.595133
     29708.26	0.12985	1721484.0	1512980.0	834475.0	0.129105	0.595034
     29708.77	0.13695	1839230.0	1616288.0	891358.0	0.129215	0.595141
     29709.27	0.13721	1802327.0	1584418.0	874300.0	0.128861	0.594549
     29709.78	0.13657	1787926.0	1571857.0	867081.0	0.128799	0.594881
     29710.29	0.12866	1674513.0	1472080.0	812319.0	0.128846	0.594539
     29710.80	0.13439	1734399.0	1524722.0	841712.0	0.128849	0.594129
     29711.30	0.14035	1904312.0	1674485.0	923906.0	0.128615	0.594651
     29711.81	0.12432	1630603.0	1433765.0	791064.0	0.128646	0.594680
     29712.32	0.12270	1620609.0	1424168.0	786450.0	0.129214	0.593814
     29712.83	0.12673	1682427.0	1479290.0	816730.0	0.128675	0.594009
     29713.34	0.12265	1628344.0	1431661.0	790941.0	0.128728	0.593367
     29713.84	0.12983	1698380.0	1493140.0	824680.0	0.128794	0.593641
     29714.35	0.12888	1708091.0	1501970.0	829916.0	0.128599	0.593208
     29714.86	0.12521	1637532.0	1439517.0	795664.0	0.128883	0.592886
     29715.37	0.11893	1531271.0	1346053.0	743594.0	0.128922	0.593437
     29715.88	0.13443	1760023.0	1547650.0	855325.0	0.128589	0.593011
     29716.38	0.12038	1568478.0	1378624.0	762254.0	0.129020	0.592561
     29716.89	0.12592	1599478.0	1406879.0	777502.0	0.128304	0.593043
     29717.40	0.12467	1646523.0	1447817.0	800761.0	0.128609	0.592250
     29717.91	0.12071	1592807.0	1400945.0	774894.0	0.128351	0.592176
     29718.41	0.12118	1625750.0	1429426.0	790799.0	0.128696	0.591984
     29718.92	0.12410	1659397.0	1459405.0	807448.0	0.128425	0.591905
     29719.43	0.12476	1637000.0	1439474.0	796347.0	0.128588	0.591998
     29719.94	0.11754	1579860.0	1389541.0	768654.0	0.128363	0.592088
     29720.45	0.10917	1448361.0	1273706.0	704819.0	0.128502	0.591745
     29720.96	0.12844	1707088.0	1501247.0	831004.0	0.128493	0.591417
     29721.46	0.12112	1577567.0	1387237.0	767719.0	0.128570	0.591645
     29721.97	0.13260	1763371.0	1551077.0	858738.0	0.128278	0.591241
     29722.48	0.13116	1715733.0	1509068.0	835989.0	0.128348	0.590632
     29722.99	0.12988	1697395.0	1492639.0	826670.0	0.128549	0.590895
     29723.50	0.13418	1758913.0	1547594.0	857175.0	0.127995	0.590815
     29724.00	0.13173	1736244.0	1527090.0	845938.0	0.128360	0.590673
     29724.51	0.12654	1693567.0	1489702.0	825365.0	0.128261	0.590506
     29725.02	0.12496	1635732.0	1438821.0	797635.0	0.128266	0.589928
     29725.53	0.12392	1644898.0	1447242.0	802239.0	0.128019	0.590008
     29726.04	0.12630	1697941.0	1493675.0	827990.0	0.128177	0.589994
     29726.55	0.12272	1586025.0	1395458.0	773797.0	0.128008	0.589668
     29727.05	0.12011	1589433.0	1398335.0	775274.0	0.128095	0.589821
     29727.56	0.12098	1595430.0	1403436.0	778271.0	0.128220	0.589604
     29728.07	0.13290	1742767.0	1533392.0	850718.0	0.127992	0.589157
     29728.58	0.12443	1646611.0	1448751.0	803428.0	0.128017	0.589570
     29729.09	0.13115	1702989.0	1498220.0	831251.0	0.128107	0.589101
     29729.60	0.12182	1602142.0	1409946.0	782286.0	0.127790	0.589086
     29730.10	0.12732	1648370.0	1450616.0	805107.0	0.127799	0.588768
     29730.61	0.13602	1772954.0	1560553.0	866011.0	0.127607	0.588898
     29731.12	0.13306	1741812.0	1532803.0	850800.0	0.127828	0.588676
     29731.63	0.13275	1714525.0	1508787.0	837607.0	0.127830	0.588512
     29732.14	0.18348	2398569.0	2110415.0	1171614.0	0.127988	0.588502
     29732.65	0.13887	1765527.0	1554034.0	862884.0	0.127595	0.588329
     29733.15	0.065242	840250.0	739536.0	410778.0	0.127677	0.587970
     29733.66	0.10264	1329284.0	1169882.0	649548.0	0.127738	0.588381
     29734.17	0.12603	1574089.0	1385618.0	769711.0	0.127530	0.587886
     29734.68	0.11910	1564965.0	1377272.0	765517.0	0.127759	0.587309
     29735.19	0.12596	1633074.0	1437250.0	798676.0	0.127733	0.587531
     29735.70	0.13424	1768474.0	1556520.0	865209.0	0.127664	0.587237
     29736.21	0.16811	2177602.0	1916362.0	1065396.0	0.127796	0.587082
     29736.71	0.13759	1778748.0	1566087.0	870219.0	0.127330	0.587591
     29737.22	0.071726	936511.0	824677.0	458291.0	0.127169	0.587487
     29737.73	0.093019	1219459.0	1073656.0	597023.0	0.127338	0.586869
     29738.24	0.10671	1389416.0	1223099.0	680057.0	0.127496	0.586966
     29738.75	0.10744	1408968.0	1240637.0	689864.0	0.127233	0.586886
     29739.26	0.13337	1749876.0	1540525.0	856720.0	0.127422	0.586767
     29739.77	0.14799	1954109.0	1720581.0	957066.0	0.127272	0.586545
     29740.28	0.14429	1900867.0	1673741.0	931443.0	0.127249	0.586082
     29740.78	0.097108	1259740.0	1109151.0	617149.0	0.127310	0.586240
     29741.29	0.081467	1069388.0	941575.0	523831.0	0.127288	0.586385
     29741.80	0.13610	1805995.0	1590374.0	885185.0	0.127142	0.585928
     29742.31	0.10985	1446359.0	1273733.0	709029.0	0.127097	0.585811
     29742.82	0.14032	1878339.0	1654030.0	920847.0	0.127173	0.585676
     29743.33	0.13733	1840806.0	1621142.0	902761.0	0.127073	0.585428
     29743.84	0.13308	1714987.0	1510046.0	841219.0	0.127265	0.585043
     29744.35	0.12117	1565762.0	1378735.0	768040.0	0.127206	0.585080
     29744.86	0.12845	1679737.0	1479392.0	824731.0	0.127006	0.584329
     29745.36	0.13243	1747930.0	1539579.0	857780.0	0.126923	0.584917
     29745.87	0.11863	1570500.0	1383286.0	770940.0	0.126932	0.584607
     29746.38	0.13452	1761349.0	1551779.0	864779.0	0.126678	0.584683
     29746.89	0.12840	1688555.0	1487091.0	828978.0	0.127051	0.584384
     29747.40	0.14106	1861750.0	1639511.0	914239.0	0.127119	0.584061
     29747.91	0.21747	2851938.0	2512200.0	1401013.0	0.126840	0.583963
     29748.42	0.092593	1200956.0	1057947.0	589923.0	0.126788	0.584093
     29748.93	0.079435	1048934.0	924224.0	515469.0	0.126575	0.583877
     29749.44	0.12910	1713253.0	1509444.0	842226.0	0.126653	0.583448
     29749.95	0.12479	1645922.0	1450085.0	808728.0	0.126679	0.583915
     29750.45	0.14015	1827705.0	1609946.0	898734.0	0.126860	0.582969
     29750.96	0.13353	1733852.0	1527637.0	852414.0	0.126623	0.583405
     29751.47	0.12915	1691317.0	1490478.0	831850.0	0.126411	0.583200
     29751.98	0.16847	2189215.0	1929158.0	1076945.0	0.126459	0.582955
     29752.49	0.10461	1384075.0	1219598.0	680771.0	0.126511	0.583051
     29753.00	0.11646	1516091.0	1336019.0	745738.0	0.126441	0.583075
     29753.51	0.12187	1583342.0	1395283.0	779122.0	0.126441	0.582685
     29754.02	0.12443	1602499.0	1411827.0	788448.0	0.126680	0.582573
     29754.53	0.11962	1559725.0	1374343.0	767642.0	0.126534	0.582408
     29755.04	0.12639	1665187.0	1467290.0	819564.0	0.126520	0.582400
     29755.55	0.12031	1570312.0	1383802.0	773231.0	0.126440	0.582012
     29756.06	0.14737	1910114.0	1683403.0	940753.0	0.126346	0.581892
     29756.57	0.12685	1630907.0	1437666.0	803014.0	0.126115	0.582404
     29757.07	0.10685	1384825.0	1220737.0	681946.0	0.126119	0.582260
     29757.58	0.12531	1627834.0	1434673.0	801803.0	0.126313	0.581829
     29758.09	0.12147	1592583.0	1403794.0	784256.0	0.126179	0.582198
     29758.60	0.12060	1542344.0	1359189.0	759556.0	0.126415	0.581909
     29759.11	0.12612	1648358.0	1452948.0	812290.0	0.126185	0.581492
     29759.62	0.12007	1572686.0	1386364.0	775177.0	0.126100	0.581348
     29760.13	0.12168	1592617.0	1403808.0	784860.0	0.126190	0.581438
     29760.64	0.12427	1637460.0	1443448.0	807297.0	0.126112	0.581098
     29761.15	0.11495	1532311.0	1351055.0	755582.0	0.125891	0.581153
     29761.66	0.12606	1659030.0	1462703.0	818081.0	0.125947	0.581080
     29762.17	0.12389	1614933.0	1423995.0	796240.0	0.125827	0.581321
     29762.68	0.13799	1794341.0	1582103.0	885001.0	0.125883	0.580921
     29763.19	0.13236	1754691.0	1547377.0	865532.0	0.125732	0.580972
     29763.70	0.12802	1660224.0	1464016.0	819215.0	0.125769	0.580592
     29764.21	0.12048	1578937.0	1392401.0	779285.0	0.125722	0.580408
     29764.72	0.13725	1767050.0	1558653.0	871983.0	0.125490	0.580807
     29765.23	0.10816	1399163.0	1233926.0	690917.0	0.125673	0.579937
     29765.74	0.12819	1656114.0	1460352.0	817356.0	0.125796	0.580358
     29766.25	0.12399	1631438.0	1438962.0	805556.0	0.125540	0.580145
     29766.76	0.12458	1667288.0	1470591.0	823437.0	0.125534	0.579933
     29767.26	0.12757	1692457.0	1492265.0	835427.0	0.125886	0.580107
     29767.77	0.12402	1637852.0	1444314.0	808554.0	0.125751	0.580142
     29768.28	0.12439	1616241.0	1425833.0	798430.0	0.125347	0.579864
     29768.79	0.13080	1749427.0	1543340.0	864403.0	0.125339	0.579665
     29769.30	0.13140	1744647.0	1538712.0	861843.0	0.125607	0.579628
     29769.81	0.13272	1745523.0	1539612.0	862516.0	0.125524	0.579432
     29770.32	0.12975	1708922.0	1507492.0	844368.0	0.125415	0.579614
     29770.83	0.12632	1640186.0	1446899.0	810775.0	0.125387	0.579187
     29771.34	0.13562	1795104.0	1583912.0	887456.0	0.125165	0.579294
     29771.85	0.12713	1707469.0	1506282.0	843981.0	0.125368	0.579270
     29772.36	0.11846	1574545.0	1389155.0	778643.0	0.125271	0.578898
     29772.87	0.12403	1630527.0	1438462.0	806068.0	0.125329	0.579162
     29773.38	0.13518	1752410.0	1545880.0	866571.0	0.125399	0.578805
     29773.89	0.12870	1675216.0	1478228.0	828532.0	0.125098	0.578944
     29774.40	0.11960	1558800.0	1375422.0	771146.0	0.125156	0.578638
     29774.91	0.12201	1605280.0	1416731.0	794306.0	0.124946	0.578639
     29775.42	0.13400	1723114.0	1520255.0	852659.0	0.125255	0.578274
     29775.93	0.10651	1390423.0	1226763.0	688067.0	0.125229	0.578248
     29776.44	0.11172	1452940.0	1282262.0	719031.0	0.124963	0.578477
     29776.95	0.11535	1488134.0	1313370.0	736478.0	0.124927	0.578472
     29777.46	0.12562	1648146.0	1454763.0	815953.0	0.124808	0.578242
     29777.97	0.11360	1498017.0	1322170.0	741553.0	0.124868	0.578283
     29778.48	0.11804	1535051.0	1354550.0	759748.0	0.125094	0.578238
     29778.99	0.11481	1544682.0	1363825.0	765401.0	0.124525	0.577649
     29779.50	0.12985	1710926.0	1509997.0	847323.0	0.124927	0.577781
     29780.01	0.12560	1697405.0	1498204.0	840920.0	0.124834	0.577526
     29780.52	0.094681	1230487.0	1086085.0	609326.0	0.124831	0.577981
     29781.03	0.12096	1592732.0	1406456.0	789596.0	0.124378	0.577307
     29781.54	0.13274	1761365.0	1555088.0	872909.0	0.124557	0.577456
     29782.05	0.12126	1616355.0	1426967.0	801107.0	0.124622	0.577312
     29782.56	0.14666	1913203.0	1689061.0	948496.0	0.124606	0.577050
     29783.07	0.12651	1663939.0	1468681.0	824536.0	0.124823	0.577299
     29783.58	0.13285	1744179.0	1539775.0	864317.0	0.124648	0.577452
     29784.09	0.12462	1611344.0	1422649.0	798803.0	0.124548	0.577162
     29784.60	0.12327	1592303.0	1405802.0	789726.0	0.124573	0.576677
     29785.12	0.12434	1640183.0	1448284.0	813304.0	0.124428	0.577030
     29785.63	0.13156	1716034.0	1515508.0	851021.0	0.124265	0.577069
     29786.14	0.11820	1560384.0	1377815.0	773902.0	0.124433	0.576809
     29786.65	0.13527	1735223.0	1532239.0	860623.0	0.124406	0.576829
     29787.16	0.13066	1700079.0	1501365.0	843536.0	0.124300	0.576527
     29787.67	0.14275	1863052.0	1645150.0	924008.0	0.124384	0.576866
     29788.18	0.12134	1535688.0	1356223.0	761760.0	0.124275	0.576827
     29788.69	0.13409	1742017.0	1538355.0	864568.0	0.124330	0.576239
     29789.20	0.14336	1854227.0	1637438.0	920240.0	0.124335	0.576254
     29789.71	0.13844	1754104.0	1549292.0	870578.0	0.124160	0.576396
     29790.22	0.12255	1585196.0	1400032.0	787225.0	0.124213	0.575736
     29790.73	0.12842	1647311.0	1454767.0	818313.0	0.124299	0.575356
     29791.24	0.13760	1746796.0	1542577.0	867249.0	0.124329	0.575884
     29791.75	0.12249	1581472.0	1396677.0	784974.0	0.124260	0.576201
     29792.26	0.13138	1708897.0	1509545.0	848705.0	0.124040	0.575852
     29792.77	0.12718	1603089.0	1415829.0	795976.0	0.124217	0.575901
     29793.28	0.12119	1565669.0	1382769.0	777793.0	0.124225	0.575383
     29793.79	0.12944	1645347.0	1453205.0	817131.0	0.124180	0.575727
     29794.30	0.13019	1683788.0	1487691.0	836649.0	0.123821	0.575576
     29794.81	0.12792	1635098.0	1444341.0	812422.0	0.124050	0.575389
     29795.32	0.12334	1586039.0	1401115.0	788179.0	0.123971	0.575298
     29795.84	0.11971	1551642.0	1370925.0	771303.0	0.123828	0.575160
     29796.35	0.12811	1672326.0	1477334.0	831443.0	0.123976	0.574832
     29796.86	0.11392	1466280.0	1295328.0	729094.0	0.123965	0.574717
     29797.37	0.12680	1635967.0	1445103.0	812995.0	0.124053	0.575211
     29797.88	0.12361	1604851.0	1417600.0	798175.0	0.124066	0.574393
     29798.39	0.12520	1634388.0	1444342.0	813164.0	0.123615	0.574476
     29798.90	0.12332	1595128.0	1409504.0	793695.0	0.123716	0.574294
     29799.41	0.12039	1588517.0	1403997.0	790134.0	0.123478	0.574876
     29799.92	0.11376	1498467.0	1324309.0	744998.0	0.123552	0.575265
     29800.43	0.11643	1546915.0	1367244.0	769868.0	0.123466	0.574333
     29800.94	0.12954	1701793.0	1503595.0	846903.0	0.123823	0.574028
     29801.45	0.12584	1641460.0	1451049.0	817340.0	0.123299	0.573987
     29801.97	0.12196	1589977.0	1405643.0	791451.0	0.123225	0.574382
     29802.48	0.13003	1686439.0	1490224.0	839690.0	0.123693	0.573649
     29802.99	0.14926	1944202.0	1718432.0	968031.0	0.123439	0.573903
     29803.50	0.12651	1631022.0	1441832.0	812381.0	0.123292	0.573700
     29804.01	0.11637	1500956.0	1326886.0	747601.0	0.123267	0.573721
     29804.52	0.12410	1611365.0	1424339.0	802700.0	0.123374	0.573482
     29805.03	0.12258	1599990.0	1414554.0	797239.0	0.123183	0.573415
     29805.54	0.13379	1739746.0	1538033.0	867033.0	0.123235	0.573183
     29806.05	0.11667	1519819.0	1343424.0	757407.0	0.123370	0.573076
     29806.56	0.12783	1665536.0	1472208.0	829797.0	0.123384	0.573338
     29807.07	0.12788	1666899.0	1473774.0	831024.0	0.123139	0.572923
     29807.59	0.20645	2728471.0	2411791.0	1360314.0	0.123372	0.572654
     29808.10	0.11344	1497642.0	1324479.0	747043.0	0.122873	0.572652
     29808.61	0.092984	1215767.0	1074520.0	606287.0	0.123501	0.572276
     29809.12	0.092340	1191755.0	1053966.0	594734.0	0.122867	0.572201
     29809.63	0.13042	1711429.0	1513379.0	854059.0	0.122984	0.572100
     29810.14	0.13987	1821293.0	1610246.0	908623.0	0.123160	0.572212
     29810.65	0.15723	2044891.0	1808336.0	1020601.0	0.122937	0.572015
     29811.16	0.095340	1249444.0	1104795.0	623687.0	0.123039	0.571766
     29811.68	0.13631	1802963.0	1593928.0	899785.0	0.123230	0.571801
     29812.19	0.10197	1334582.0	1179978.0	666429.0	0.123122	0.571317
     29812.70	0.12910	1704065.0	1507158.0	851035.0	0.122791	0.571528
     29813.21	0.12240	1615158.0	1428169.0	806645.0	0.123040	0.571265
     29813.72	0.11786	1549237.0	1370073.0	773679.0	0.122899	0.571462
     29814.23	0.13990	1822423.0	1611774.0	910396.0	0.122831	0.571211
     29814.74	0.14247	1835870.0	1623807.0	917168.0	0.122745	0.571238
     29815.25	0.11325	1474360.0	1304025.0	736903.0	0.122768	0.570755
     29815.77	0.13470	1746296.0	1544494.0	872746.0	0.122801	0.570807
     29816.28	0.099965	1289180.0	1140590.0	644454.0	0.122461	0.570898
     29816.79	0.11467	1507262.0	1333405.0	753943.0	0.122559	0.570174
     29817.30	0.11004	1422031.0	1258096.0	711159.0	0.122487	0.570459
     29817.81	0.12238	1592980.0	1408947.0	796300.0	0.122764	0.570622
     29818.32	0.11061	1439404.0	1273076.0	719778.0	0.122793	0.570248
     29818.83	0.12988	1683929.0	1489781.0	842181.0	0.122501	0.570389
     29819.35	0.11790	1553969.0	1374820.0	777308.0	0.122489	0.570241
     29819.86	0.13545	1774064.0	1569474.0	887818.0	0.122532	0.569729
     29820.37	0.087817	1138099.0	1006801.0	569533.0	0.122581	0.569717
     29820.88	0.12551	1593331.0	1409523.0	797340.0	0.122575	0.569725
     29821.39	0.11597	1489951.0	1318420.0	746000.0	0.122309	0.569464
     29821.90	0.13745	1766735.0	1563650.0	884854.0	0.122110	0.569355
     29822.42	0.12325	1552652.0	1373735.0	777594.0	0.122431	0.569084
     29822.93	0.14083	1836277.0	1624883.0	919746.0	0.122304	0.569094
     29823.44	0.16960	2211712.0	1956930.0	1107930.0	0.122390	0.568884
     29823.95	0.11616	1510623.0	1336877.0	756959.0	0.122186	0.568782
     29824.46	0.098217	1285411.0	1137306.0	643757.0	0.122416	0.569096
     29824.97	0.13047	1703909.0	1507734.0	853823.0	0.122317	0.568639
     29825.49	0.12990	1662786.0	1471524.0	833361.0	0.122196	0.568587
     29826.00	0.12629	1638984.0	1450359.0	821621.0	0.122265	0.568287
     29826.51	0.13505	1741939.0	1541791.0	873199.0	0.122054	0.568537
     29827.02	0.13367	1716431.0	1519048.0	860727.0	0.122163	0.568062
     29827.53	0.13423	1708872.0	1512047.0	856717.0	0.122369	0.568112
     29828.04	0.12157	1585474.0	1403073.0	794970.0	0.122219	0.568116
     29828.56	0.13088	1661065.0	1470376.0	833393.0	0.121941	0.567768
     29829.07	0.13188	1692171.0	1497789.0	849252.0	0.122022	0.567389
     29829.58	0.12838	1621105.0	1434749.0	813276.0	0.122118	0.567675
     29830.09	0.14266	1856617.0	1643321.0	931798.0	0.122037	0.567358
     29830.60	0.12417	1573032.0	1392433.0	789591.0	0.121952	0.567293
     29831.11	0.15084	1916416.0	1696590.0	962376.0	0.121836	0.566970
     29831.63	0.12507	1604922.0	1421208.0	806064.0	0.121568	0.567099
     29832.14	0.12795	1636991.0	1449419.0	822133.0	0.121697	0.567016
     29832.65	0.11651	1515188.0	1341259.0	760736.0	0.121931	0.567078
     29833.16	0.13012	1646855.0	1458122.0	827199.0	0.121718	0.566859
     29833.67	0.13053	1659852.0	1469369.0	833706.0	0.121895	0.566708
     29834.19	0.12531	1586806.0	1404983.0	797382.0	0.121698	0.566447
     29834.70	0.12194	1561707.0	1382966.0	784647.0	0.121549	0.566752
     29835.21	0.13406	1709102.0	1513647.0	858866.0	0.121446	0.566664
     29835.72	0.12916	1658296.0	1468649.0	833613.0	0.121448	0.566329
     29836.23	0.11643	1492399.0	1321427.0	750418.0	0.121673	0.565837
     29836.75	0.11760	1507233.0	1334880.0	758056.0	0.121434	0.565839
     29837.26	0.13015	1665109.0	1474612.0	837349.0	0.121496	0.565909
     29837.77	0.11749	1501468.0	1329745.0	755202.0	0.121456	0.565757
     29838.28	0.12624	1644939.0	1456901.0	827749.0	0.121392	0.565357
     29838.80	0.11974	1504859.0	1332520.0	757198.0	0.121627	0.565202
     29839.31	0.12009	1508341.0	1335443.0	758895.0	0.121747	0.565155
     29839.82	0.12442	1572350.0	1392665.0	791007.0	0.121352	0.565668
     29840.33	0.12115	1515352.0	1342258.0	763064.0	0.121294	0.564767
     29840.84	0.12502	1615272.0	1430513.0	813016.0	0.121470	0.565038
     29841.36	0.10828	1352249.0	1198100.0	681238.0	0.121032	0.564581
     29841.87	0.13212	1664941.0	1474692.0	838301.0	0.121341	0.564827
     29842.38	0.12142	1496940.0	1326003.0	753901.0	0.121254	0.564663
     29842.89	0.13974	1774074.0	1571467.0	893834.0	0.121269	0.564245
     29843.41	0.13072	1645777.0	1457978.0	828836.0	0.121162	0.564784
     29843.92	0.12423	1579932.0	1399485.0	795925.0	0.121277	0.564355
     29844.43	0.12427	1563677.0	1385147.0	787686.0	0.121234	0.564462
     29844.94	0.13214	1699589.0	1506068.0	857141.0	0.120884	0.563655
     29845.46	0.11929	1525556.0	1351345.0	768819.0	0.121259	0.564000
     29845.97	0.12502	1567568.0	1388656.0	790646.0	0.121189	0.563241
     29846.48	0.12641	1598838.0	1416539.0	805989.0	0.121061	0.563902
     29846.99	0.13085	1644563.0	1457737.0	829583.0	0.120589	0.563717
     29847.50	0.11938	1548253.0	1371677.0	780778.0	0.121093	0.563498
     29848.02	0.12600	1609468.0	1426555.0	812406.0	0.120641	0.563018
     29848.53	0.12224	1590957.0	1410012.0	802880.0	0.120738	0.563148
     29849.04	0.13022	1686707.0	1494274.0	851134.0	0.121138	0.562826
     29849.56	0.12410	1564066.0	1386023.0	789900.0	0.120850	0.562287
     29850.07	0.13084	1671583.0	1481494.0	843966.0	0.120720	0.562694
     29850.58	0.13078	1677979.0	1487483.0	847367.0	0.120505	0.562707
     29851.09	0.13509	1731133.0	1534295.0	874395.0	0.120705	0.562294
     29851.61	0.12361	1579628.0	1399905.0	797994.0	0.120785	0.562059
     29852.12	0.13068	1674237.0	1483458.0	845562.0	0.120982	0.562130
     29852.63	0.12703	1620468.0	1436235.0	818392.0	0.120690	0.562439
     29853.14	0.13095	1666333.0	1477086.0	841746.0	0.120554	0.562348
     29853.66	0.12948	1635766.0	1449836.0	826705.0	0.120661	0.561758
     29854.17	0.11691	1491423.0	1322129.0	753830.0	0.120487	0.561832
     29854.68	0.13185	1695828.0	1503506.0	857255.0	0.120371	0.561820
     29855.19	0.12180	1557392.0	1380281.0	787291.0	0.120726	0.561444
     29855.71	0.13114	1698546.0	1505505.0	858988.0	0.120644	0.561129
     29856.22	0.10968	1426002.0	1263911.0	721007.0	0.120664	0.561317
     29856.73	0.12178	1564204.0	1386903.0	791632.0	0.120304	0.560732
     29857.25	0.12060	1536368.0	1361997.0	777269.0	0.120469	0.560921
     29857.76	0.11320	1452738.0	1288334.0	735081.0	0.120100	0.561124
     29858.27	0.11411	1445383.0	1281136.0	731192.0	0.120627	0.560826
     29858.78	0.12839	1607332.0	1424824.0	813474.0	0.120527	0.560490
     29859.30	0.11629	1470190.0	1303513.0	744313.0	0.120329	0.560357
     29859.81	0.12209	1589797.0	1409701.0	804567.0	0.120229	0.560829
     29860.32	0.10972	1402944.0	1243952.0	710074.0	0.120279	0.560679
     29860.84	0.11181	1439401.0	1276105.0	728795.0	0.120415	0.560175
     29861.35	0.12162	1568783.0	1391116.0	794529.0	0.120194	0.560112
     29861.86	0.11481	1469667.0	1303393.0	744607.0	0.120065	0.559870
     29862.37	0.13597	1750103.0	1552025.0	886424.0	0.120114	0.560120
     29862.89	0.12392	1586922.0	1407426.0	804112.0	0.120034	0.559779
     29863.40	0.13324	1727390.0	1531285.0	874993.0	0.120504	0.559647
     29863.91	0.12597	1579799.0	1400753.0	800496.0	0.120288	0.559534
     29864.43	0.13924	1741856.0	1544870.0	883145.0	0.120011	0.559206
     29864.94	0.13110	1655868.0	1468385.0	839389.0	0.120162	0.559244
     29865.45	0.11818	1507666.0	1337039.0	764036.0	0.120105	0.559598
     29865.97	0.13245	1657319.0	1469558.0	840440.0	0.120240	0.558791
     29866.48	0.12011	1527316.0	1354629.0	774566.0	0.119984	0.558980
     29866.99	0.13184	1679058.0	1489724.0	852008.0	0.119642	0.558750
     29867.50	0.13044	1637348.0	1452117.0	830418.0	0.120055	0.558849
     29868.02	0.13006	1640554.0	1455180.0	832550.0	0.119904	0.558392
     29868.53	0.12965	1655747.0	1469315.0	840621.0	0.119456	0.558411
     29869.04	0.12809	1589853.0	1410711.0	806654.0	0.119548	0.558954
     29869.56	0.14219	1832099.0	1625609.0	930232.0	0.119580	0.558204
     29870.07	0.12201	1572389.0	1395325.0	798356.0	0.119469	0.558328
     29870.58	0.13619	1744952.0	1548299.0	885895.0	0.119570	0.558314
     29871.10	0.14279	1831879.0	1625455.0	930351.0	0.119554	0.557981
     29871.61	0.13603	1732139.0	1536452.0	879599.0	0.119881	0.557765
     29872.12	0.12832	1645528.0	1459646.0	835858.0	0.119867	0.557490
     29872.64	0.13029	1650200.0	1464229.0	838106.0	0.119568	0.557940
     29873.15	0.13030	1677575.0	1488549.0	852067.0	0.119547	0.557892
     29873.66	0.12924	1621051.0	1438598.0	824066.0	0.119406	0.557174
     29874.18	0.12082	1506613.0	1336757.0	765304.0	0.119618	0.557729
     29874.69	0.12988	1620619.0	1438824.0	823668.0	0.118982	0.557814
     29875.20	0.12825	1641542.0	1457026.0	834728.0	0.119239	0.557047
     29875.72	0.11512	1432895.0	1272005.0	728653.0	0.119102	0.557152
     29876.23	0.12389	1596283.0	1416687.0	811401.0	0.119357	0.557314
     29876.74	0.13286	1673243.0	1484969.0	851142.0	0.119370	0.556570
     29877.26	0.12802	1630608.0	1447563.0	829575.0	0.119071	0.556723
     29877.77	0.12216	1526054.0	1354653.0	776443.0	0.119140	0.556577
     29878.29	0.12391	1582735.0	1404996.0	805323.0	0.119120	0.556546
     29878.80	0.12803	1641717.0	1456654.0	835313.0	0.119601	0.556091
     29879.31	0.12058	1561177.0	1385777.0	794461.0	0.119179	0.556352
     29879.83	0.11776	1494308.0	1326650.0	760588.0	0.119006	0.556320
     29880.34	0.12558	1587156.0	1409372.0	808051.0	0.118800	0.556274
     29880.85	0.12228	1521836.0	1351304.0	775202.0	0.118847	0.555702
     29881.37	0.10671	1330145.0	1181188.0	677305.0	0.118767	0.556154
     29881.88	0.12981	1633743.0	1450198.0	832054.0	0.119174	0.555558
     29882.39	0.12216	1527651.0	1356194.0	777673.0	0.119049	0.556131
     29882.91	0.12877	1647735.0	1462676.0	839286.0	0.119134	0.555471
     29883.42	0.12388	1551072.0	1377284.0	790342.0	0.118833	0.555403
     29883.94	0.12830	1632452.0	1449197.0	831472.0	0.119074	0.555567
     29884.45	0.12664	1605572.0	1425671.0	818309.0	0.118837	0.555158
     29884.96	0.13160	1646633.0	1462203.0	839243.0	0.118788	0.555199
     29885.48	0.12912	1646280.0	1461489.0	839166.0	0.119062	0.554803
     29885.99	0.12657	1611481.0	1430850.0	821311.0	0.118885	0.555122
     29886.50	0.13019	1637228.0	1454165.0	835143.0	0.118573	0.554584
     29887.02	0.12738	1610915.0	1430436.0	821518.0	0.118823	0.554581
     29887.53	0.11622	1482088.0	1316119.0	755802.0	0.118765	0.554663
     29888.05	0.12923	1661642.0	1475434.0	847809.0	0.118854	0.554052
     29888.56	0.11837	1489426.0	1322617.0	759787.0	0.118778	0.554329
     29889.07	0.13293	1693830.0	1504311.0	864087.0	0.118657	0.554417
     29889.59	0.11765	1473526.0	1308635.0	752163.0	0.118674	0.553787
     29890.10	0.11999	1504845.0	1336748.0	767922.0	0.118450	0.554307
     29890.62	0.13806	1738485.0	1544044.0	887468.0	0.118609	0.553788
     29891.13	0.12873	1622426.0	1441087.0	828418.0	0.118525	0.553635
     29891.64	0.12689	1629106.0	1447178.0	831675.0	0.118416	0.553929
     29892.16	0.13563	1706737.0	1516318.0	871433.0	0.118298	0.553901
     29892.67	0.12263	1561034.0	1386729.0	797274.0	0.118401	0.553505
     29893.19	0.15382	1988334.0	1766296.0	1015455.0	0.118412	0.553548
     29893.70	0.11347	1485265.0	1319559.0	758741.0	0.118296	0.553392
     29894.21	0.13605	1735505.0	1541367.0	886312.0	0.118629	0.553356
     29894.73	0.10712	1374406.0	1220925.0	702246.0	0.118413	0.553080
     29895.24	0.12700	1617484.0	1437149.0	826572.0	0.118211	0.553130
     29895.76	0.12682	1621932.0	1441047.0	829110.0	0.118248	0.552772
     29896.27	0.12676	1602116.0	1423421.0	818839.0	0.118262	0.552931
     29896.78	0.12656	1632508.0	1450616.0	834104.0	0.118129	0.553385
     29897.30	0.14042	1808053.0	1606404.0	924405.0	0.118252	0.552603
     29897.81	0.11694	1477842.0	1313437.0	755636.0	0.117936	0.552843
     29898.33	0.10609	1363795.0	1211917.0	697178.0	0.118068	0.552918
     29898.84	0.11959	1510641.0	1342595.0	772572.0	0.117930	0.552634
     29899.36	0.11982	1542817.0	1371386.0	789250.0	0.117788	0.552494
     29899.87	0.12341	1568909.0	1394062.0	802472.0	0.118159	0.552280
     29900.38	0.11251	1405832.0	1249260.0	719291.0	0.118078	0.552041
     29900.90	0.12060	1549764.0	1377477.0	793215.0	0.117849	0.551915
     29901.41	0.12711	1633360.0	1451612.0	835593.0	0.117965	0.552288
     29901.93	0.13061	1618288.0	1438229.0	828305.0	0.117956	0.551786
     29902.44	0.088276	1095213.0	973654.0	560452.0	0.117648	0.552312
     29902.96	0.11280	1433018.0	1273913.0	733987.0	0.117689	0.551357
     29903.47	0.12539	1584800.0	1408672.0	811227.0	0.117811	0.551855
     29903.98	0.11367	1413312.0	1256556.0	724084.0	0.117561	0.551223
     29904.50	0.13808	1733500.0	1540959.0	887779.0	0.117738	0.551437
     29905.01	0.12144	1518954.0	1350281.0	778169.0	0.117709	0.551124
     29905.53	0.13117	1667154.0	1482354.0	854374.0	0.117487	0.551018
     29906.04	0.15399	1958371.0	1741215.0	1003434.0	0.117530	0.551155
     29906.56	0.10658	1364037.0	1212807.0	699124.0	0.117511	0.550865
     29907.07	0.13236	1668248.0	1483336.0	854992.0	0.117480	0.550957
     29907.59	0.13185	1687350.0	1500176.0	864819.0	0.117577	0.550817
     29908.10	0.12606	1590270.0	1414148.0	815302.0	0.117377	0.550724
     29908.62	0.13180	1676258.0	1490478.0	859279.0	0.117467	0.550758
     29909.13	0.12721	1606977.0	1428894.0	824075.0	0.117454	0.550394
     29909.64	0.19209	2401519.0	2135249.0	1230779.0	0.117518	0.550936
     29910.16	0.089621	1138842.0	1012830.0	584269.0	0.117264	0.550142
     29910.67	0.10976	1374338.0	1222178.0	705013.0	0.117338	0.550174
     29911.19	0.12768	1591111.0	1414982.0	816050.0	0.117316	0.550396
     29911.70	0.13970	1754169.0	1560085.0	899874.0	0.117255	0.550241
     29912.22	0.12885	1629333.0	1448762.0	836363.0	0.117461	0.549402
     29912.73	0.13724	1706431.0	1517215.0	875727.0	0.117528	0.549577
     29913.25	0.13407	1710538.0	1521290.0	878176.0	0.117249	0.549467
     29913.76	0.14468	1812498.0	1611964.0	930328.0	0.117253	0.549671
     29914.28	0.13346	1643855.0	1462079.0	843894.0	0.117185	0.549588
     29914.79	0.11718	1484628.0	1320532.0	762283.0	0.117130	0.549472
     29915.31	0.12930	1638898.0	1457807.0	841391.0	0.117091	0.549632
     29915.82	0.12498	1548892.0	1377811.0	795481.0	0.117044	0.549304
     29916.34	0.12899	1629745.0	1450016.0	837621.0	0.116849	0.548764
     29916.85	0.12563	1582749.0	1407995.0	813213.0	0.116997	0.548929
     29917.37	0.12547	1575798.0	1401830.0	809522.0	0.116983	0.549090
     29917.88	0.12670	1587104.0	1412053.0	815896.0	0.116866	0.548513
     29918.40	0.11625	1461654.0	1300249.0	751291.0	0.117013	0.548518
     29918.91	0.12481	1555277.0	1383628.0	799382.0	0.116945	0.548625
     29919.43	0.12540	1572275.0	1398952.0	808170.0	0.116800	0.548706
     29919.94	0.12677	1585683.0	1410594.0	815002.0	0.117004	0.548576
     29920.46	0.12279	1553600.0	1382608.0	798778.0	0.116603	0.548644
     29920.97	0.12196	1541751.0	1372260.0	792943.0	0.116460	0.548463
     29921.49	0.12523	1600506.0	1424275.0	823405.0	0.116657	0.547970
     29922.00	0.12202	1560634.0	1388856.0	802878.0	0.116612	0.548033
     29922.52	0.12521	1581620.0	1407439.0	814217.0	0.116678	0.547300
     29923.03	0.12051	1521587.0	1354081.0	782852.0	0.116631	0.547935
     29923.55	0.11373	1461207.0	1300430.0	751694.0	0.116568	0.548121
     29924.06	0.11874	1486529.0	1322732.0	765231.0	0.116745	0.547277
     29924.58	0.13117	1657627.0	1475560.0	853770.0	0.116349	0.547131
     29925.09	0.12204	1536391.0	1367633.0	790982.0	0.116355	0.547562
     29925.61	0.13055	1653122.0	1471522.0	851376.0	0.116368	0.547199
     29926.12	0.12422	1555752.0	1384644.0	801055.0	0.116516	0.547269
     29926.64	0.13506	1678154.0	1494146.0	864564.0	0.116140	0.547085
     29927.15	0.11868	1485009.0	1321636.0	764949.0	0.116550	0.546816
     29927.67	0.12196	1522342.0	1355205.0	784231.0	0.116297	0.547004
     29928.18	0.13905	1725827.0	1536940.0	889348.0	0.115913	0.547060
     29928.70	0.11795	1489769.0	1326322.0	767907.0	0.116211	0.546496
     29929.21	0.12354	1546797.0	1376953.0	796857.0	0.116313	0.546953
     29929.73	0.12806	1573005.0	1400349.0	810950.0	0.116266	0.546270
     29930.24	0.12247	1512932.0	1346797.0	779985.0	0.116320	0.546210
     29930.76	0.11400	1405453.0	1251193.0	724816.0	0.116262	0.545935
     29931.27	0.13800	1707245.0	1519825.0	880200.0	0.116286	0.546201
     29931.79	0.12158	1530063.0	1362696.0	789187.0	0.115844	0.546217
     29932.31	0.13126	1636641.0	1457134.0	844290.0	0.116174	0.545731
     29932.82	0.13322	1641594.0	1461725.0	847226.0	0.116050	0.545405
     29933.34	0.11958	1481849.0	1319324.0	764334.0	0.116171	0.545870
     29933.85	0.13672	1675545.0	1492124.0	864837.0	0.115938	0.545415
     29934.37	0.12246	1517773.0	1351321.0	783289.0	0.116161	0.545336
     29934.88	0.12418	1531064.0	1363067.0	790232.0	0.116226	0.545166
     29935.40	0.13416	1685635.0	1500828.0	870086.0	0.116125	0.545180
     29935.91	0.11114	1406675.0	1252307.0	726066.0	0.116241	0.545102
     29936.43	0.14206	1793882.0	1597772.0	926326.0	0.115772	0.545139
     29936.94	0.12407	1560341.0	1389642.0	806108.0	0.115858	0.544584
     29937.46	0.12453	1555067.0	1385495.0	803350.0	0.115461	0.545022
     29937.98	0.12755	1596855.0	1422194.0	824977.0	0.115835	0.544601
     29938.49	0.12461	1565526.0	1394697.0	808606.0	0.115545	0.545121
     29939.01	0.12502	1566773.0	1395490.0	809468.0	0.115772	0.544624
     29939.52	0.096500	1213907.0	1081106.0	627312.0	0.115859	0.544296
     29940.04	0.14166	1786880.0	1591984.0	923407.0	0.115490	0.544666
     29940.55	0.11860	1484033.0	1322065.0	767214.0	0.115568	0.544184
     29941.07	0.12770	1610539.0	1434652.0	832241.0	0.115647	0.544556
     29941.59	0.11922	1488969.0	1326733.0	769895.0	0.115364	0.544221
     29942.10	0.10679	1334115.0	1188312.0	689950.0	0.115734	0.543670
     29942.62	0.11843	1526929.0	1360512.0	789854.0	0.115397	0.543768
     29943.13	0.11672	1460621.0	1301409.0	755605.0	0.115414	0.543684
     29943.65	0.11354	1422469.0	1267350.0	736107.0	0.115466	0.543308
     29944.16	0.11712	1434993.0	1278356.0	742149.0	0.115585	0.543780
     29944.68	0.11630	1434419.0	1277968.0	742135.0	0.115489	0.543495
     29945.20	0.11914	1477948.0	1317002.0	764740.0	0.115297	0.543577
     29945.71	0.12607	1602237.0	1427112.0	828795.0	0.115748	0.543435
     29946.23	0.12721	1576542.0	1404388.0	816212.0	0.115632	0.542683
     29946.74	0.12738	1610756.0	1435547.0	833918.0	0.115158	0.543166
     29947.26	0.12858	1606310.0	1431514.0	831642.0	0.115207	0.543086
     29947.78	0.11526	1461220.0	1302045.0	756778.0	0.115336	0.542621
     29948.29	0.14858	1872919.0	1669110.0	970140.0	0.115208	0.542605
     29948.81	0.12382	1564127.0	1393552.0	810374.0	0.115472	0.542115
     29949.32	0.13736	1712544.0	1526338.0	887258.0	0.115109	0.542491
     29949.84	0.11862	1488543.0	1326445.0	771310.0	0.115295	0.542167
     29950.36	0.13354	1662308.0	1481535.0	861394.0	0.115128	0.542282
     29950.87	0.14003	1759627.0	1568147.0	911984.0	0.115207	0.542028
     29951.39	0.12281	1552337.0	1383613.0	804477.0	0.115063	0.542261
     29951.90	0.12722	1598041.0	1424703.0	828587.0	0.114815	0.541997
     29952.42	0.13351	1641889.0	1463500.0	851111.0	0.115017	0.542044
     29952.94	0.13486	1661001.0	1480415.0	861127.0	0.115098	0.541836
     29953.45	0.12999	1604162.0	1429995.0	831945.0	0.114931	0.541660
     29953.97	0.12955	1600557.0	1426790.0	830373.0	0.114925	0.541307
     29954.48	0.14336	1790312.0	1595994.0	928787.0	0.114893	0.541373
     29955.00	0.13076	1640231.0	1462231.0	850807.0	0.114874	0.541533
     29955.52	0.12778	1563825.0	1394226.0	811473.0	0.114795	0.541244
     29956.03	0.12958	1599487.0	1426099.0	830092.0	0.114740	0.541161
     29956.55	0.12720	1579410.0	1408179.0	819910.0	0.114754	0.540858
     29957.07	0.12771	1592747.0	1420092.0	826537.0	0.114739	0.541232
     29957.58	0.13116	1621910.0	1446311.0	842048.0	0.114588	0.540934
     29958.10	0.12484	1547348.0	1379351.0	803312.0	0.114929	0.540625
     29958.61	0.12456	1549235.0	1381455.0	804490.0	0.114624	0.540684
     29959.13	0.13329	1684664.0	1502502.0	875175.0	0.114434	0.540463
     29959.65	0.11575	1445723.0	1289428.0	751285.0	0.114411	0.540169
     29960.16	0.12457	1580167.0	1409043.0	820876.0	0.114620	0.540294
     29960.68	0.13108	1635917.0	1459183.0	850139.0	0.114327	0.540232
     29961.20	0.11977	1488117.0	1327204.0	773202.0	0.114437	0.540289
     29961.71	0.12661	1576861.0	1406205.0	819538.0	0.114542	0.539909
     29962.23	0.12901	1587890.0	1416306.0	825749.0	0.114354	0.539516
     29962.75	0.12273	1497922.0	1335838.0	778682.0	0.114520	0.539711
     29963.26	0.11806	1462007.0	1303930.0	759962.0	0.114427	0.539870
     29963.78	0.12038	1505741.0	1343063.0	783244.0	0.114332	0.539264
     29964.30	0.11715	1445787.0	1289772.0	751894.0	0.114188	0.539625
     29964.81	0.12083	1521849.0	1357189.0	791643.0	0.114510	0.539060
     29965.33	0.12585	1575642.0	1405871.0	819721.0	0.114006	0.539448
     29965.84	0.11901	1512603.0	1349154.0	786573.0	0.114354	0.539547
     29966.36	0.12341	1526067.0	1361042.0	793914.0	0.114443	0.539031
     29966.88	0.12543	1565096.0	1396141.0	814386.0	0.114235	0.539033
     29967.39	0.12816	1598949.0	1426372.0	831883.0	0.114212	0.539198
     29967.91	0.13272	1655090.0	1476939.0	861704.0	0.113884	0.538815
     29968.43	0.12082	1491408.0	1330766.0	776419.0	0.113966	0.538818
     29968.94	0.12899	1622376.0	1447884.0	844621.0	0.113789	0.538970
     29969.46	0.14112	1747302.0	1558756.0	910150.0	0.114185	0.538034
     29969.98	0.11807	1472551.0	1314174.0	767034.0	0.113788	0.538432
     29970.49	0.12568	1553041.0	1385957.0	809049.0	0.113824	0.538287
     29971.01	0.12591	1530690.0	1365837.0	797651.0	0.113951	0.537852
     29971.53	0.12224	1477553.0	1318437.0	769764.0	0.113940	0.538118
     29972.04	0.15925	1945153.0	1735513.0	1013576.0	0.114038	0.537818
     29972.56	0.085618	1051292.0	937867.0	547496.0	0.114167	0.538253
     29973.08	0.12766	1526258.0	1361830.0	795598.0	0.113990	0.537491
     29973.60	0.11977	1462419.0	1305246.0	762574.0	0.113700	0.537447
     29974.11	0.13306	1651446.0	1473552.0	860685.0	0.113975	0.537703
     29974.63	0.12590	1540149.0	1374563.0	803189.0	0.113743	0.537301
     29975.15	0.13342	1673159.0	1493273.0	872369.0	0.113743	0.537513
     29975.66	0.13527	1630379.0	1455086.0	850202.0	0.113747	0.537346
     29976.18	0.16269	1999024.0	1784405.0	1042735.0	0.113574	0.537238
     29976.70	0.090442	1123106.0	1002614.0	586146.0	0.113487	0.536797
     29977.21	0.12873	1567864.0	1399618.0	817949.0	0.113515	0.537155
     29977.73	0.12669	1557674.0	1390048.0	812486.0	0.113855	0.536995
     29978.25	0.12434	1517427.0	1354671.0	791971.0	0.113458	0.536789
     29978.76	0.12513	1543918.0	1378247.0	805991.0	0.113511	0.536495
     29979.28	0.13141	1650515.0	1473589.0	861606.0	0.113386	0.536658
     29979.80	0.12158	1506241.0	1344709.0	786355.0	0.113440	0.536525
     29980.32	0.19126	2349523.0	2096883.0	1226700.0	0.113760	0.536124
     29980.83	0.10276	1291020.0	1152836.0	674144.0	0.113208	0.536537
     29981.35	0.10561	1308931.0	1168679.0	683710.0	0.113337	0.536095
     29981.87	0.10725	1343195.0	1199321.0	701499.0	0.113296	0.536291
     29982.38	0.11284	1400476.0	1250319.0	731525.0	0.113413	0.536023
     29982.90	0.11620	1422853.0	1270744.0	743499.0	0.113061	0.535990
     29983.42	0.13543	1662624.0	1485204.0	869210.0	0.112845	0.535723
     29983.94	0.12254	1525732.0	1362675.0	797585.0	0.113025	0.535617
     29984.45	0.14212	1747094.0	1559974.0	913392.0	0.113285	0.535259
     29984.97	0.096807	1188587.0	1061562.0	621488.0	0.113024	0.535380
     29985.49	0.090082	1095148.0	977862.0	572475.0	0.113276	0.535399
     29986.00	0.11710	1421077.0	1268935.0	742796.0	0.113237	0.535512
     29986.52	0.10628	1278251.0	1141491.0	668260.0	0.113157	0.535413
     29987.04	0.12182	1494377.0	1334692.0	781587.0	0.113009	0.535129
     29987.56	0.13372	1638397.0	1463691.0	856990.0	0.112757	0.535290
     29988.07	0.13659	1666300.0	1488279.0	871454.0	0.112985	0.535213
     29988.59	0.19618	2405097.0	2147669.0	1258256.0	0.113207	0.534656
     29989.11	0.084348	1041134.0	930077.0	544490.0	0.112798	0.535418
     29989.63	0.087616	1098551.0	981105.0	575212.0	0.113068	0.533941
     29990.14	0.13156	1606165.0	1434786.0	840693.0	0.112834	0.534544
     29990.66	0.12585	1548891.0	1383864.0	810938.0	0.112660	0.534443
     29991.18	0.13620	1668662.0	1490729.0	874229.0	0.112757	0.533678
     29991.70	0.13273	1648125.0	1472492.0	862795.0	0.112682	0.534534
     29992.21	0.11943	1483970.0	1325935.0	777026.0	0.112603	0.534399
     29992.73	0.21718	2702526.0	2414463.0	1415443.0	0.112710	0.534034
     29993.25	0.10580	1311146.0	1171494.0	686689.0	0.112622	0.534154
     29993.77	0.083232	1037188.0	926601.0	543240.0	0.112745	0.533972
     29994.28	0.12845	1579603.0	1411586.0	827280.0	0.112460	0.534326
     29994.80	0.11648	1439056.0	1285958.0	753925.0	0.112483	0.533966
     29995.32	0.13579	1692709.0	1512404.0	886947.0	0.112630	0.533670
     29995.84	0.13629	1705866.0	1524207.0	893680.0	0.112599	0.533882
     29996.35	0.15783	1932008.0	1726157.0	1012365.0	0.112662	0.533608
     29996.87	0.18362	2285071.0	2041997.0	1197862.0	0.112469	0.533390
     29997.39	0.077797	966207.0	863537.0	506577.0	0.112341	0.533360
     29997.91	0.11053	1385031.0	1237786.0	726495.0	0.112398	0.532848
     29998.42	0.13032	1641157.0	1466950.0	860855.0	0.112216	0.533015
     29998.94	0.13058	1643521.0	1468894.0	861977.0	0.112331	0.533036
     29999.46	0.12645	1556066.0	1390566.0	816360.0	0.112450	0.532611
     29999.98	0.12324	1556165.0	1390754.0	816169.0	0.112378	0.532980
     30000.50	0.12958	1639073.0	1465221.0	860068.0	0.112125	0.532750
     30001.01	0.12196	1526057.0	1364341.0	800689.0	0.112016	0.532954
     30001.53	0.12818	1603201.0	1432922.0	841096.0	0.112287	0.532765
     30002.05	0.11767	1466077.0	1310416.0	769350.0	0.112245	0.532554
     30002.57	0.13123	1647231.0	1472511.0	864708.0	0.112127	0.532333
     30003.08	0.12037	1524467.0	1362766.0	800347.0	0.112128	0.532226
     30003.60	0.12735	1623118.0	1451362.0	851939.0	0.111847	0.532743
     30004.12	0.12775	1623694.0	1451620.0	852495.0	0.112024	0.532268
     30004.64	0.11715	1483891.0	1327011.0	779161.0	0.111739	0.532467
     30005.16	0.11903	1521410.0	1360454.0	799121.0	0.111819	0.532061
     30005.67	0.12666	1615778.0	1444710.0	848978.0	0.111908	0.531631
     30006.19	0.12090	1525425.0	1364049.0	801943.0	0.111816	0.531175
     30006.71	0.11276	1435716.0	1283960.0	754032.0	0.111715	0.532270
     30007.23	0.12353	1577238.0	1410181.0	828870.0	0.111957	0.531410
     30007.75	0.12018	1502201.0	1342867.0	789317.0	0.112124	0.531394
     30008.26	0.12697	1628935.0	1456571.0	856216.0	0.111841	0.531318
     30008.78	0.13165	1656611.0	1481259.0	870644.0	0.111882	0.531415
     30009.30	0.12512	1624700.0	1453160.0	854104.0	0.111583	0.531443
     30009.82	0.12751	1618404.0	1446983.0	850749.0	0.111960	0.531119
     30010.34	0.12070	1560087.0	1395196.0	820168.0	0.111707	0.531281
     30010.86	0.14881	1887792.0	1688606.0	992641.0	0.111505	0.531290
     30011.37	0.11701	1494997.0	1337024.0	786135.0	0.111678	0.531073
     30011.89	0.13113	1684986.0	1507345.0	886527.0	0.111407	0.530794
     30012.41	0.11323	1421655.0	1271641.0	747965.0	0.111513	0.530707
     30012.93	0.12483	1571395.0	1405753.0	826974.0	0.111391	0.530555
     30013.45	0.12906	1625865.0	1454387.0	855411.0	0.111455	0.530758
     30013.96	0.11736	1480073.0	1323691.0	778605.0	0.111667	0.530675
     30014.48	0.13100	1641972.0	1469332.0	864386.0	0.111090	0.530544
     30015.00	0.12198	1547630.0	1384468.0	814677.0	0.111409	0.530280
     30015.52	0.13603	1718517.0	1537352.0	904639.0	0.111400	0.530281
     30016.04	0.11961	1526254.0	1365890.0	803608.0	0.111010	0.530450
     30016.56	0.13619	1716972.0	1536063.0	903934.0	0.111340	0.530222
     30017.07	0.12959	1629006.0	1457546.0	858156.0	0.111216	0.529724
     30017.59	0.13209	1687216.0	1509813.0	888938.0	0.111094	0.529714
     30018.11	0.13115	1669179.0	1493735.0	879695.0	0.111052	0.529460
     30018.63	0.12564	1592203.0	1425139.0	838981.0	0.110849	0.529837
     30019.15	0.12864	1660344.0	1485998.0	874864.0	0.110938	0.529773
     30019.67	0.12496	1575441.0	1409348.0	830201.0	0.111408	0.529215
     30020.18	0.13163	1682878.0	1506270.0	887287.0	0.110869	0.529223
     30020.70	0.12469	1559973.0	1396045.0	822198.0	0.111025	0.529417
     30021.22	0.12864	1613267.0	1443603.0	850405.0	0.111119	0.529185
     30021.74	0.12181	1575573.0	1410153.0	830463.0	0.110921	0.529470
     30022.26	0.11114	1452839.0	1300275.0	766118.0	0.110944	0.528995
     30022.78	0.12773	1662837.0	1488417.0	877312.0	0.110812	0.528606
     30023.30	0.12886	1668969.0	1493845.0	880408.0	0.110853	0.528723
     30023.81	0.11158	1444162.0	1292561.0	761886.0	0.110904	0.528584
     30024.33	0.11468	1465509.0	1311389.0	773174.0	0.111116	0.528338
     30024.85	0.13843	1779786.0	1593109.0	939446.0	0.110806	0.528152
     30025.37	0.11436	1461315.0	1307763.0	771059.0	0.111019	0.528308
     30025.89	0.10363	1324713.0	1185666.0	699110.0	0.110891	0.528252
     30026.41	0.10275	1310910.0	1173548.0	692030.0	0.110690	0.528158
     30026.93	0.12095	1521316.0	1362002.0	802909.0	0.110620	0.528470
     30027.44	0.12040	1522839.0	1362965.0	804216.0	0.110914	0.527550
     30027.96	0.12172	1546553.0	1384429.0	816711.0	0.110741	0.527758
     30028.48	0.13088	1663627.0	1489558.0	878918.0	0.110521	0.527543
     30029.00	0.13122	1667168.0	1492762.0	880851.0	0.110498	0.527495
     30029.52	0.14722	1903227.0	1703792.0	1005388.0	0.110695	0.527483
     30030.04	0.11536	1459783.0	1307109.0	771299.0	0.110470	0.527497
     30030.56	0.11033	1417112.0	1268960.0	748670.0	0.110423	0.527655
     30031.08	0.13414	1701488.0	1523983.0	899667.0	0.110176	0.527058
     30031.60	0.14434	1831832.0	1640394.0	968077.0	0.110380	0.527380
     30032.11	0.12878	1635216.0	1463904.0	863819.0	0.110668	0.527499
     30032.63	0.13894	1789028.0	1601797.0	945786.0	0.110546	0.526865
     30033.15	0.15724	1982454.0	1775430.0	1048038.0	0.110293	0.527123
     30033.67	0.088832	1106540.0	991010.0	584935.0	0.110269	0.527224
     30034.19	0.11143	1403887.0	1257396.0	742599.0	0.110202	0.526642
     30034.71	0.13801	1750788.0	1568346.0	926234.0	0.110044	0.526650
     30035.23	0.13203	1648990.0	1476606.0	872026.0	0.110417	0.526682
     30035.75	0.14681	1844890.0	1652443.0	976101.0	0.110165	0.526444
     30036.27	0.12593	1598769.0	1432091.0	845994.0	0.110098	0.526379
     30036.78	0.13300	1672649.0	1497735.0	885298.0	0.110455	0.525785
     30037.30	0.14572	1868448.0	1673248.0	988843.0	0.110341	0.525986
     30037.82	0.11094	1405624.0	1259028.0	743993.0	0.110141	0.526064
     30038.34	0.13480	1702579.0	1525132.0	901844.0	0.110063	0.525395
     30038.86	0.12930	1638252.0	1467661.0	867324.0	0.109960	0.526013
     30039.38	0.12812	1639566.0	1468988.0	868143.0	0.109858	0.525973
     30039.90	0.12510	1596746.0	1430422.0	845937.0	0.109998	0.525280
     30040.42	0.13507	1723384.0	1543701.0	912372.0	0.110107	0.525890
     30040.94	0.11356	1439051.0	1289120.0	762241.0	0.110024	0.525452
     30041.46	0.13768	1775780.0	1591535.0	941260.0	0.109541	0.525235
     30041.98	0.11647	1472596.0	1319457.0	780116.0	0.109807	0.525533
     30042.50	0.11801	1479914.0	1325928.0	784042.0	0.109871	0.525405
     30043.01	0.13439	1716404.0	1537962.0	909793.0	0.109773	0.524996
     30043.53	0.12544	1575904.0	1411980.0	835736.0	0.109836	0.524435
     30044.05	0.12627	1575614.0	1411809.0	835511.0	0.109773	0.524584
     30044.57	0.12452	1509135.0	1352517.0	800437.0	0.109569	0.524565
     30045.09	0.11267	1416654.0	1269247.0	751525.0	0.109874	0.524075
     30045.61	0.12754	1578439.0	1414607.0	837329.0	0.109585	0.524390
     30046.13	0.11874	1473037.0	1319819.0	781388.0	0.109832	0.524178
     30046.65	0.11523	1405272.0	1259355.0	745570.0	0.109631	0.524206
     30047.17	0.13307	1641987.0	1471622.0	871161.0	0.109542	0.524294
     30047.69	0.12050	1479771.0	1326459.0	785297.0	0.109374	0.524206
     30048.21	0.12273	1516115.0	1358737.0	804846.0	0.109596	0.523660
     30048.73	0.11876	1477732.0	1324360.0	784391.0	0.109579	0.523777
     30049.25	0.12392	1537407.0	1378020.0	816044.0	0.109450	0.523935
