# Diamond Light Source
# Instrument: B18-CORE XAS Date: Thu, 28 Jul 2016 02:19:54 BST
# Ring energy:   3.0
# Ring current - start: 298.5
# Primary slits:  vertical gap=  2.4; horizontal gap= 52.0; vertical offset=  0.4; horizontal offset= -1.0
# Secondary slits:  vertical gap=  3.5; horizontal gap= 23.0; vertical offset=  5.3; horizontal offset= -14.5
# OH Mirror Coating: Pt
# White beam filter: 140um PyC
# Crystal cut: Si(311)
# PostDCM slits:  vertical gap= 18.0; horizontal gap= 28.0; vertical offset= -9.1; horizontal offset= -16.5
# Experimental slits:  vertical gap= 28.6; horizontal gap= 45.0; vertical offset=  5.7; horizontal offset= -17.5
# HR Mirror : out; Y: 37.8; Pitch:  0.3; Coating: Pt
# Mirror 2: Pitch:  2.3; Height: -6.4; Yaw: -1.6; Bend:  0.8;
# I0 Stanford sensitivity: 20 nA/V Offsets: 20 pA
# It Stanford sensitivity: 100 nA/V Offsets: 1 pA
# Iref Stanford sensitivity: 20 nA/V Offsets: 1 pA
#
# Ascii output file name: 'Andrea_Sn//ascii/262926_PtSn_OC_H2_Abu_1.dat'
# Nexus output file: '/dls/b18/data/2016/sp10306-9/Andrea_Sn//nexus/262926_PtSn_OC_H2_Abu_1.nxs'
# XML folder and files:
# /dls/b18/data/2016/sp10306-9/xml/Andrea_Sn/
# QEXAFS_Parameters
# Sample_Parameters
# Detector_Parameters
# Output_Parameters
# The contents of these files are also stored in the nexus file.
#
# Sample name: PtSn_OC_H2_Abu
# Sample description: default sample description
# Additional comments: default additional comments
# command: qexafs_energy 29000.0 30050.0 2094 263.53 qexafs_counterTimer01
#
#
# qexafs_energy	   time	       I0	       It	     Iref	  lnI0It	 lnItIref
     29000.24	0.14153	2258986.0	1777101.0	3675444.0	0.239933	-0.726691
     29000.73	0.19192	3068690.0	2413388.0	4992162.0	0.240219	-0.726838
     29001.21	0.10904	1746235.0	1373327.0	2840291.0	0.240226	-0.726670
     29001.69	0.092212	1468631.0	1155380.0	2389553.0	0.239901	-0.726677
     29002.18	0.11572	1847324.0	1453058.0	3005685.0	0.240068	-0.726835
     29002.66	0.13767	2195152.0	1727006.0	3571759.0	0.239862	-0.726669
     29003.14	0.13308	2121724.0	1668954.0	3451993.0	0.240032	-0.726755
     29003.63	0.11732	1877359.0	1476997.0	3055033.0	0.239855	-0.726779
     29004.11	0.12202	1951952.0	1535542.0	3176301.0	0.239946	-0.726834
     29004.59	0.13027	2082544.0	1638791.0	3389958.0	0.239631	-0.726859
     29005.08	0.12991	2075927.0	1633776.0	3379148.0	0.239514	-0.726730
     29005.56	0.12444	1984042.0	1561062.0	3229080.0	0.239770	-0.726831
     29006.05	0.12848	2050324.0	1613084.0	3337409.0	0.239850	-0.727047
     29006.53	0.12252	1949746.0	1533895.0	3173084.0	0.239889	-0.726894
     29007.01	0.12189	1929808.0	1518977.0	3142331.0	0.239383	-0.726928
     29007.50	0.12884	2064140.0	1624188.0	3359127.0	0.239706	-0.726673
     29007.98	0.11964	1907574.0	1501102.0	3105657.0	0.239633	-0.727026
     29008.46	0.13495	2145849.0	1689248.0	3494458.0	0.239252	-0.726895
     29008.95	0.10300	1636445.0	1287775.0	2663855.0	0.239610	-0.726858
     29009.43	0.11889	1898109.0	1494040.0	3090479.0	0.239374	-0.726842
     29009.92	0.12562	2009281.0	1581369.0	3271853.0	0.239486	-0.727066
     29010.40	0.11999	1926368.0	1516479.0	3136334.0	0.239245	-0.726663
     29010.88	0.12449	1983944.0	1561804.0	3230461.0	0.239245	-0.726783
     29011.37	0.13438	2144373.0	1687941.0	3491777.0	0.239338	-0.726901
     29011.85	0.12069	1927916.0	1517702.0	3139671.0	0.239242	-0.726921
     29012.34	0.12499	2005535.0	1578652.0	3264820.0	0.239340	-0.726633
     29012.82	0.12899	2071847.0	1631185.0	3373924.0	0.239134	-0.726770
     29013.30	0.12315	1977921.0	1557251.0	3221011.0	0.239124	-0.726773
     29013.79	0.13055	2090163.0	1645529.0	3404669.0	0.239180	-0.727086
     29014.27	0.13056	2095372.0	1649930.0	3413216.0	0.238998	-0.726922
     29014.76	0.13327	2138753.0	1684255.0	3484225.0	0.238900	-0.726922
     29015.24	0.12914	2067682.0	1628162.0	3368297.0	0.238976	-0.726956
     29015.72	0.12121	1940108.0	1527378.0	3160003.0	0.239191	-0.727020
     29016.21	0.10972	1758047.0	1384159.0	2863586.0	0.239111	-0.726982
     29016.69	0.12756	2048885.0	1613030.0	3336569.0	0.239181	-0.726829
     29017.18	0.12159	1947207.0	1533720.0	3172857.0	0.238700	-0.726936
     29017.66	0.13421	2151068.0	1694092.0	3505012.0	0.238818	-0.727047
     29018.14	0.13015	2088083.0	1644426.0	3401692.0	0.238855	-0.726882
     29018.63	0.12988	2085341.0	1642626.0	3398200.0	0.238636	-0.726950
     29019.11	0.12518	2008926.0	1582714.0	3274824.0	0.238459	-0.727123
     29019.60	0.13399	2144128.0	1688606.0	3493980.0	0.238830	-0.727138
     29020.08	0.13065	2084497.0	1641722.0	3396672.0	0.238782	-0.727050
     29020.57	0.12447	1997043.0	1572773.0	3254134.0	0.238827	-0.727086
     29021.05	0.13050	2085554.0	1642892.0	3398220.0	0.238576	-0.726794
     29021.53	0.12336	1976780.0	1556850.0	3221437.0	0.238805	-0.727163
     29022.02	0.13197	2111923.0	1663277.0	3440941.0	0.238809	-0.726955
     29022.50	0.13128	2096070.0	1651174.0	3416164.0	0.238578	-0.727032
     29022.99	0.12537	2002564.0	1577530.0	3263278.0	0.238568	-0.726872
     29023.47	0.14956	2387073.0	1880449.0	3889051.0	0.238557	-0.726655
     29023.96	0.099585	1594682.0	1256231.0	2599172.0	0.238558	-0.727077
     29024.44	0.10567	1694370.0	1334598.0	2760575.0	0.238681	-0.726809
     29024.92	0.12144	1941100.0	1529010.0	3163086.0	0.238634	-0.726928
     29025.41	0.12887	2069256.0	1630537.0	3372744.0	0.238280	-0.726817
     29025.89	0.12222	1951149.0	1537368.0	3180768.0	0.238347	-0.727051
     29026.38	0.12671	2020202.0	1591633.0	3293183.0	0.238437	-0.727094
     29026.86	0.11884	1898667.0	1496112.0	3095066.0	0.238282	-0.726939
     29027.35	0.10750	1728884.0	1362186.0	2818206.0	0.238385	-0.727010
     29027.83	0.11051	1774670.0	1398440.0	2893378.0	0.238257	-0.727067
     29028.32	0.11182	1799677.0	1418330.0	2933594.0	0.238127	-0.726748
     29028.80	0.11542	1847483.0	1455617.0	3012061.0	0.238394	-0.727195
     29029.28	0.11812	1891862.0	1490900.0	3083979.0	0.238182	-0.726841
     29029.77	0.13483	2162239.0	1704510.0	3525503.0	0.237867	-0.726745
     29030.25	0.13914	2228154.0	1755908.0	3632597.0	0.238187	-0.726962
     29030.74	0.13138	2104498.0	1658751.0	3430385.0	0.238012	-0.726608
     29031.22	0.12230	1955276.0	1541212.0	3188760.0	0.237962	-0.727063
     29031.71	0.11267	1795990.0	1415738.0	2928394.0	0.237905	-0.726803
     29032.19	0.12835	2051040.0	1616728.0	3344990.0	0.237943	-0.727059
     29032.68	0.13853	2214774.0	1745585.0	3611306.0	0.238061	-0.726980
     29033.16	0.12273	1971854.0	1554159.0	3215049.0	0.238040	-0.726908
     29033.65	0.14217	2283544.0	1799910.0	3723748.0	0.237992	-0.726994
     29034.13	0.16829	2701923.0	2129758.0	4406440.0	0.237955	-0.727059
     29034.62	0.11481	1843500.0	1453136.0	3006102.0	0.237942	-0.726920
     29035.10	0.090433	1456165.0	1147965.0	2374512.0	0.237815	-0.726801
     29035.58	0.12527	1994972.0	1572943.0	3254087.0	0.237682	-0.726963
     29036.07	0.12641	2022095.0	1594281.0	3298571.0	0.237711	-0.727066
     29036.55	0.14068	2247445.0	1771613.0	3666063.0	0.237904	-0.727228
     29037.04	0.13877	2230883.0	1759247.0	3638941.0	0.237512	-0.726807
     29037.52	0.12851	2066304.0	1628892.0	3370274.0	0.237861	-0.727094
     29038.01	0.13561	2169422.0	1710294.0	3538122.0	0.237795	-0.726931
     29038.49	0.14118	2246723.0	1771379.0	3665601.0	0.237714	-0.727234
     29038.98	0.11723	1872344.0	1475971.0	3054221.0	0.237875	-0.727208
     29039.46	0.13905	2221924.0	1751706.0	3623086.0	0.237783	-0.726736
     29039.95	0.12461	1997504.0	1575025.0	3258225.0	0.237627	-0.726911
     29040.43	0.12639	2029318.0	1600316.0	3310844.0	0.237499	-0.727002
     29040.92	0.12447	1994269.0	1572973.0	3253539.0	0.237310	-0.726776
     29041.40	0.13069	2100791.0	1656895.0	3427959.0	0.237369	-0.727020
     29041.89	0.12460	2000651.0	1577493.0	3262728.0	0.237636	-0.726727
     29042.37	0.12601	2013588.0	1588100.0	3285340.0	0.237380	-0.726932
     29042.86	0.11889	1899632.0	1498373.0	3099770.0	0.237280	-0.726948
     29043.34	0.13468	2164404.0	1707115.0	3531184.0	0.237340	-0.726828
     29043.83	0.12189	1959776.0	1545674.0	3197188.0	0.237370	-0.726812
     29044.31	0.13136	2099084.0	1655923.0	3425825.0	0.237143	-0.726984
     29044.80	0.12046	1931897.0	1523739.0	3151703.0	0.237335	-0.726776
     29045.28	0.12751	2047406.0	1614886.0	3340752.0	0.237309	-0.726932
     29045.77	0.11779	1890376.0	1491385.0	3084576.0	0.237071	-0.726709
     29046.25	0.10432	1674844.0	1321576.0	2733672.0	0.236895	-0.726821
     29046.74	0.12865	2069121.0	1632535.0	3376238.0	0.236990	-0.726628
     29047.22	0.12472	1998642.0	1576751.0	3260306.0	0.237102	-0.726455
     29047.71	0.11702	1881235.0	1484104.0	3069370.0	0.237117	-0.726661
     29048.19	0.13361	2142996.0	1690838.0	3497087.0	0.236981	-0.726706
     29048.68	0.11259	1793016.0	1415178.0	2927145.0	0.236644	-0.726772
     29049.16	0.12273	1963658.0	1549158.0	3204391.0	0.237098	-0.726810
     29049.65	0.12570	2017153.0	1591598.0	3291604.0	0.236949	-0.726636
     29050.13	0.13811	2216445.0	1748301.0	3616206.0	0.237260	-0.726781
     29050.62	0.12389	1985492.0	1566975.0	3240687.0	0.236720	-0.726638
     29051.10	0.13188	2115692.0	1669925.0	3452705.0	0.236603	-0.726379
     29051.59	0.12436	1982881.0	1565051.0	3237247.0	0.236632	-0.726805
     29052.08	0.13566	2165734.0	1709213.0	3535524.0	0.236726	-0.726828
     29052.56	0.13100	2089971.0	1649320.0	3410966.0	0.236787	-0.726632
     29053.05	0.11061	1762290.0	1391298.0	2876779.0	0.236377	-0.726434
     29053.53	0.12240	1958956.0	1545924.0	3196540.0	0.236790	-0.726447
     29054.02	0.12968	2067419.0	1631987.0	3374717.0	0.236503	-0.726513
     29054.50	0.13075	2100748.0	1658585.0	3429378.0	0.236329	-0.726414
     29054.99	0.12969	2075532.0	1637838.0	3386646.0	0.236840	-0.726463
     29055.47	0.12546	2014998.0	1591140.0	3289812.0	0.236167	-0.726380
     29055.96	0.13111	2092838.0	1651845.0	3415639.0	0.236628	-0.726472
     29056.44	0.13030	2087722.0	1648043.0	3407271.0	0.236485	-0.726323
     29056.93	0.12439	1992648.0	1572690.0	3251684.0	0.236677	-0.726385
     29057.41	0.11493	1847023.0	1457890.0	3014978.0	0.236585	-0.726602
     29057.90	0.14344	2298904.0	1814985.0	3751765.0	0.236355	-0.726149
     29058.39	0.12837	2065669.0	1630750.0	3372051.0	0.236414	-0.726481
     29058.87	0.12414	1992552.0	1572947.0	3251755.0	0.236465	-0.726244
     29059.36	0.12737	2045793.0	1615068.0	3338997.0	0.236408	-0.726293
     29059.84	0.12731	2037504.0	1608684.0	3326185.0	0.236309	-0.726410
     29060.33	0.13130	2107553.0	1663942.0	3439985.0	0.236338	-0.726278
     29060.81	0.11288	1817399.0	1434992.0	2966450.0	0.236247	-0.726207
     29061.30	0.11919	1906820.0	1505496.0	3112667.0	0.236315	-0.726358
     29061.78	0.12666	2041740.0	1612114.0	3332499.0	0.236256	-0.726176
     29062.27	0.12830	2058985.0	1625919.0	3361494.0	0.236140	-0.726312
     29062.76	0.12057	1932869.0	1526007.0	3154649.0	0.236351	-0.726223
     29063.24	0.12373	1981784.0	1564960.0	3235650.0	0.236137	-0.726370
     29063.73	0.13030	2093638.0	1653499.0	3417529.0	0.236010	-0.726024
     29064.21	0.14123	2269884.0	1792074.0	3704715.0	0.236355	-0.726233
     29064.70	0.086420	1390712.0	1098362.0	2270322.0	0.235996	-0.726102
     29065.18	0.10602	1701055.0	1343545.0	2776600.0	0.235937	-0.725916
     29065.67	0.096464	1547900.0	1222424.0	2526038.0	0.236063	-0.725816
     29066.16	0.12384	1982502.0	1565919.0	3236533.0	0.235887	-0.726030
     29066.64	0.11387	1834216.0	1448468.0	2993560.0	0.236111	-0.725957
     29067.13	0.14360	2306537.0	1822055.0	3766132.0	0.235782	-0.726083
     29067.61	0.13154	2107629.0	1664981.0	3440909.0	0.235750	-0.725922
     29068.10	0.14842	2380616.0	1880483.0	3886031.0	0.235831	-0.725860
     29068.59	0.091711	1466569.0	1158377.0	2393571.0	0.235906	-0.725767
     29069.07	0.12186	1951033.0	1541396.0	3185304.0	0.235670	-0.725859
     29069.56	0.12687	2027904.0	1602303.0	3311010.0	0.235561	-0.725811
     29070.04	0.13838	2216901.0	1751470.0	3618397.0	0.235655	-0.725576
     29070.53	0.12411	1995023.0	1576250.0	3257151.0	0.235607	-0.725804
     29071.01	0.13428	2155260.0	1702879.0	3518153.0	0.235591	-0.725616
     29071.50	0.19896	3191574.0	2521145.0	5208960.0	0.235801	-0.725667
     29071.99	0.095620	1531844.0	1210330.0	2500692.0	0.235579	-0.725674
     29072.47	0.095745	1535523.0	1213241.0	2506509.0	0.235576	-0.725596
     29072.96	0.11764	1882537.0	1487595.0	3073602.0	0.235460	-0.725689
     29073.44	0.12818	2043333.0	1614638.0	3335566.0	0.235472	-0.725532
     29073.93	0.13032	2087828.0	1649600.0	3407734.0	0.235591	-0.725515
     29074.42	0.14245	2291443.0	1810834.0	3740308.0	0.235394	-0.725380
     29074.90	0.13224	2120372.0	1675855.0	3462171.0	0.235268	-0.725572
     29075.39	0.16286	2604164.0	2057862.0	4250388.0	0.235444	-0.725343
     29075.87	0.14334	2297334.0	1815960.0	3749821.0	0.235135	-0.725094
     29076.36	0.10362	1660430.0	1312384.0	2710249.0	0.235231	-0.725195
     29076.85	0.12127	1946521.0	1538306.0	3176742.0	0.235362	-0.725174
     29077.33	0.12843	2062020.0	1629978.0	3365485.0	0.235120	-0.725006
     29077.82	0.13095	2100495.0	1660402.0	3427511.0	0.235113	-0.724775
     29078.31	0.13143	2094849.0	1655482.0	3417856.0	0.235389	-0.724921
     29078.79	0.12206	1965240.0	1553197.0	3206495.0	0.235299	-0.724863
     29079.28	0.15148	2429394.0	1920322.0	3965218.0	0.235149	-0.725068
     29079.76	0.10612	1707848.0	1349995.0	2786062.0	0.235133	-0.724528
     29080.25	0.11827	1892709.0	1495999.0	3087936.0	0.235215	-0.724709
     29080.74	0.12624	2029861.0	1604522.0	3311609.0	0.235141	-0.724608
     29081.22	0.13330	2133658.0	1686608.0	3480911.0	0.235118	-0.724575
     29081.71	0.12724	2038525.0	1611723.0	3326306.0	0.234923	-0.724559
     29082.20	0.12548	2017028.0	1594539.0	3291222.0	0.235040	-0.724674
     29082.68	0.12352	1983197.0	1568170.0	3235901.0	0.234801	-0.724398
     29083.17	0.11514	1849787.0	1462211.0	3017584.0	0.235121	-0.724507
     29083.65	0.12742	2049738.0	1620492.0	3343888.0	0.234982	-0.724404
     29084.14	0.11668	1873680.0	1481134.0	3056658.0	0.235096	-0.724514
     29084.63	0.12890	2072383.0	1638020.0	3379493.0	0.235211	-0.724238
     29085.11	0.11481	1833655.0	1449975.0	2991378.0	0.234765	-0.724188
     29085.60	0.12639	2031547.0	1606259.0	3313758.0	0.234890	-0.724175
     29086.09	0.11990	1925424.0	1522007.0	3139813.0	0.235116	-0.724133
     29086.57	0.12776	2049030.0	1620281.0	3341803.0	0.234767	-0.723911
     29087.06	0.11888	1908418.0	1508807.0	3112178.0	0.234955	-0.724004
     29087.55	0.12817	2056516.0	1626711.0	3355383.0	0.234453	-0.724006
     29088.03	0.13113	2104682.0	1664362.0	3431782.0	0.234723	-0.723638
     29088.52	0.13016	2073311.0	1639654.0	3381937.0	0.234662	-0.723963
     29089.01	0.13461	2160669.0	1709049.0	3523682.0	0.234481	-0.723569
     29089.49	0.13099	2097694.0	1659151.0	3420758.0	0.234533	-0.723556
     29089.98	0.12193	1955524.0	1546488.0	3188005.0	0.234672	-0.723409
     29090.47	0.12800	2056479.0	1626058.0	3352125.0	0.234837	-0.723436
     29090.95	0.12290	1973765.0	1560653.0	3216743.0	0.234839	-0.723265
     29091.44	0.12112	1942042.0	1536069.0	3164973.0	0.234513	-0.722918
     29091.93	0.12147	1945238.0	1538678.0	3170064.0	0.234461	-0.722828
     29092.41	0.12586	2014045.0	1592700.0	3281879.0	0.234714	-0.722985
     29092.90	0.13258	2125466.0	1681089.0	3463174.0	0.234549	-0.722744
     29093.39	0.12905	2063415.0	1632183.0	3362633.0	0.234444	-0.722806
     29093.87	0.12700	2037068.0	1611225.0	3318882.0	0.234517	-0.722633
     29094.36	0.13307	2134067.0	1688208.0	3477238.0	0.234362	-0.722571
     29094.85	0.12982	2082565.0	1646890.0	3392546.0	0.234712	-0.722692
     29095.33	0.12094	1929884.0	1526685.0	3143754.0	0.234361	-0.722319
     29095.82	0.13054	2086601.0	1651021.0	3399709.0	0.234143	-0.722296
     29096.31	0.12849	2056827.0	1627406.0	3350770.0	0.234177	-0.722203
     29096.79	0.13319	2138350.0	1691323.0	3481850.0	0.234523	-0.722053
     29097.28	0.12823	2055203.0	1626069.0	3347902.0	0.234209	-0.722168
     29097.77	0.13952	2238918.0	1770504.0	3644588.0	0.234728	-0.721979
     29098.25	0.11057	1773778.0	1403718.0	2888290.0	0.233987	-0.721540
     29098.74	0.13055	2092164.0	1655470.0	3406662.0	0.234114	-0.721648
     29099.23	0.11155	1786944.0	1413804.0	2909351.0	0.234223	-0.721646
     29099.71	0.11700	1874921.0	1483268.0	3051918.0	0.234319	-0.721522
     29100.20	0.13044	2087152.0	1651504.0	3398138.0	0.234114	-0.721541
     29100.69	0.12250	1963285.0	1553462.0	3195967.0	0.234133	-0.721404
     29101.17	0.12652	2023311.0	1601369.0	3294302.0	0.233876	-0.721335
     29101.66	0.12608	2008350.0	1589584.0	3269296.0	0.233841	-0.721102
     29102.15	0.11398	1813002.0	1435054.0	2950405.0	0.233782	-0.720740
     29102.64	0.10860	1736879.0	1374639.0	2826058.0	0.233899	-0.720692
     29103.12	0.10944	1747404.0	1382907.0	2843303.0	0.233943	-0.720779
     29103.61	0.11151	1779644.0	1408603.0	2895887.0	0.233815	-0.720693
     29104.10	0.12218	1948021.0	1541638.0	3167663.0	0.233968	-0.720149
     29104.58	0.10808	1724250.0	1364621.0	2804087.0	0.233915	-0.720201
     29105.07	0.13467	2151404.0	1702587.0	3498056.0	0.233972	-0.720059
     29105.56	0.10939	1744437.0	1380635.0	2836443.0	0.233888	-0.720007
     29106.04	0.13113	2090609.0	1654554.0	3398497.0	0.233924	-0.719802
     29106.53	0.12594	2009845.0	1590669.0	3266282.0	0.233903	-0.719498
     29107.02	0.11476	1828184.0	1447120.0	2971765.0	0.233748	-0.719581
     29107.51	0.13654	2176088.0	1722833.0	3537314.0	0.233559	-0.719398
     29107.99	0.12220	1949744.0	1543386.0	3167839.0	0.233719	-0.719071
     29108.48	0.13711	2183180.0	1728870.0	3548525.0	0.233315	-0.719064
     29108.97	0.12936	2067833.0	1636854.0	3358374.0	0.233725	-0.718681
     29109.46	0.14450	2304817.0	1824745.0	3744063.0	0.233561	-0.718731
     29109.94	0.12360	1971535.0	1561103.0	3202407.0	0.233420	-0.718510
     29110.43	0.12448	1989353.0	1574596.0	3229447.0	0.233811	-0.718312
     29110.92	0.12459	1978088.0	1565993.0	3210724.0	0.233611	-0.717976
     29111.40	0.12194	1945943.0	1540640.0	3157835.0	0.233549	-0.717689
     29111.89	0.13572	2166457.0	1715277.0	3515876.0	0.233519	-0.717714
     29112.38	0.13226	2101262.0	1663742.0	3409849.0	0.233469	-0.717599
     29112.87	0.12546	2001180.0	1584367.0	3246327.0	0.233552	-0.717339
     29113.35	0.13611	2172301.0	1720053.0	3523150.0	0.233432	-0.717000
     29113.84	0.13641	2172983.0	1720434.0	3523447.0	0.233524	-0.716863
     29114.33	0.13578	2162149.0	1712002.0	3504918.0	0.233439	-0.716504
     29114.82	0.13291	2111439.0	1671949.0	3423187.0	0.233380	-0.716582
     29115.30	0.13246	2109340.0	1670574.0	3419388.0	0.233208	-0.716294
     29115.79	0.13263	2114359.0	1673953.0	3425742.0	0.233564	-0.716130
     29116.28	0.13769	2199953.0	1742139.0	3564272.0	0.233322	-0.715846
     29116.77	0.12476	1968122.0	1558265.0	3187211.0	0.233507	-0.715573
     29117.25	0.13457	2123970.0	1681923.0	3439572.0	0.233349	-0.715409
     29117.74	0.12484	1977062.0	1565245.0	3200126.0	0.233570	-0.715148
     29118.23	0.12058	1907955.0	1511489.0	3088520.0	0.232937	-0.714597
     29118.72	0.12665	2010600.0	1592647.0	3253637.0	0.233036	-0.714376
     29119.20	0.11556	1833814.0	1452197.0	2966229.0	0.233320	-0.714214
     29119.69	0.13170	2092576.0	1657174.0	3384693.0	0.233282	-0.714149
     29120.18	0.12259	1944732.0	1540426.0	3145373.0	0.233065	-0.713873
     29120.67	0.11845	1874460.0	1484322.0	3029669.0	0.233363	-0.713495
     29121.15	0.13590	2165618.0	1715178.0	3500656.0	0.233189	-0.713434
     29121.64	0.11585	1845206.0	1461903.0	2981743.0	0.232852	-0.712769
     29122.13	0.11280	1794539.0	1421390.0	2899000.0	0.233113	-0.712731
     29122.62	0.12956	2057946.0	1629877.0	3323025.0	0.233204	-0.712371
     29123.10	0.11936	1885749.0	1493310.0	3044277.0	0.233330	-0.712268
     29123.59	0.11494	1817212.0	1438939.0	2932209.0	0.233397	-0.711850
     29124.08	0.12381	1957581.0	1550284.0	3157712.0	0.233271	-0.711410
     29124.57	0.12330	1955626.0	1548989.0	3154658.0	0.233108	-0.711278
     29125.06	0.12412	1977100.0	1565488.0	3186634.0	0.233434	-0.710768
     29125.54	0.11270	1793184.0	1420126.0	2890090.0	0.233247	-0.710542
     29126.03	0.13005	2068702.0	1638286.0	3333014.0	0.233271	-0.710226
     29126.52	0.11801	1877794.0	1487535.0	3025558.0	0.232977	-0.709975
     29127.01	0.13900	2207782.0	1748381.0	3554677.0	0.233298	-0.709574
     29127.49	0.12742	2018344.0	1598956.0	3249513.0	0.232926	-0.709154
     29127.98	0.13745	2188027.0	1733345.0	3522076.0	0.232947	-0.708998
     29128.47	0.13129	2077670.0	1645835.0	3342667.0	0.232999	-0.708521
     29128.96	0.12559	1979185.0	1567978.0	3182875.0	0.232898	-0.707998
     29129.45	0.11263	1784490.0	1413665.0	2868776.0	0.232947	-0.707700
     29129.93	0.13383	2123758.0	1682244.0	3413331.0	0.233059	-0.707560
     29130.42	0.12691	2015054.0	1596245.0	3236971.0	0.232992	-0.706984
     29130.91	0.10963	1741282.0	1379327.0	2796071.0	0.233026	-0.706620
     29131.40	0.12315	1951004.0	1545175.0	3130753.0	0.233207	-0.706136
     29131.89	0.13502	2132920.0	1689323.0	3421643.0	0.233164	-0.705793
     29132.37	0.12624	1985717.0	1573004.0	3184364.0	0.232993	-0.705265
     29132.86	0.12842	2033484.0	1610827.0	3259368.0	0.233003	-0.704786
     29133.35	0.12290	1921712.0	1522174.0	3079007.0	0.233077	-0.704468
     29133.84	0.12479	1981681.0	1570182.0	3174509.0	0.232754	-0.703961
     29134.33	0.12822	2036677.0	1612908.0	3260220.0	0.233281	-0.703756
     29134.81	0.12890	2034922.0	1611783.0	3256343.0	0.233116	-0.703264
     29135.30	0.13352	2102361.0	1665167.0	3362056.0	0.233136	-0.702627
     29135.79	0.12594	2001238.0	1585553.0	3198753.0	0.232833	-0.701828
     29136.28	0.12914	2038193.0	1614817.0	3256639.0	0.232842	-0.701474
     29136.77	0.13186	2088917.0	1654550.0	3335118.0	0.233117	-0.700979
     29137.25	0.13149	2071047.0	1640611.0	3305717.0	0.232986	-0.700585
     29137.74	0.12378	1957257.0	1550363.0	3122123.0	0.233055	-0.700024
     29138.23	0.12443	1964548.0	1556278.0	3131277.0	0.232965	-0.699144
     29138.72	0.12713	2003769.0	1587356.0	3193078.0	0.232960	-0.698916
     29139.21	0.12626	1999335.0	1583920.0	3183821.0	0.232912	-0.698179
     29139.70	0.11954	1898416.0	1503817.0	3021602.0	0.233013	-0.697781
     29140.18	0.11847	1871358.0	1482286.0	2975980.0	0.233079	-0.696988
     29140.67	0.12856	2036594.0	1613035.0	3236249.0	0.233161	-0.696297
     29141.16	0.12643	1999338.0	1583140.0	3175544.0	0.233406	-0.696069
     29141.65	0.11488	1817047.0	1439201.0	2883289.0	0.233125	-0.694844
     29142.14	0.11993	1895238.0	1501288.0	3006411.0	0.233021	-0.694424
     29142.63	0.11907	1888472.0	1495675.0	2993658.0	0.233190	-0.693918
     29143.11	0.11619	1845714.0	1461785.0	2923247.0	0.233208	-0.693037
     29143.60	0.11249	1782276.0	1411859.0	2821739.0	0.232984	-0.692446
     29144.09	0.11336	1793439.0	1420538.0	2836734.0	0.233099	-0.691618
     29144.58	0.12536	1992522.0	1577922.0	3148655.0	0.233292	-0.690867
     29145.07	0.10996	1744280.0	1381246.0	2754067.0	0.233356	-0.690093
     29145.56	0.12419	1976363.0	1565431.0	3118619.0	0.233097	-0.689229
     29146.04	0.11994	1903529.0	1507821.0	3001210.0	0.233044	-0.688350
     29146.53	0.12088	1917330.0	1518389.0	3020352.0	0.233284	-0.687723
     29147.02	0.14675	2323920.0	1840396.0	3657410.0	0.233275	-0.686774
     29147.51	0.10369	1642019.0	1300353.0	2582075.0	0.233291	-0.685958
     29148.00	0.14134	2240135.0	1774176.0	3518623.0	0.233200	-0.684734
     29148.49	0.13733	2175128.0	1722253.0	3413561.0	0.233454	-0.684123
     29148.98	0.12075	1911372.0	1513585.0	2996850.0	0.233340	-0.683081
     29149.46	0.13257	2103280.0	1665514.0	3294332.0	0.233364	-0.682070
     29149.95	0.16150	2563585.0	2029580.0	4009746.0	0.233578	-0.680899
     29150.44	0.10128	1606319.0	1271843.0	2510545.0	0.233478	-0.680033
     29150.93	0.11811	1877728.0	1486399.0	2930728.0	0.233706	-0.678894
     29151.42	0.12304	1951729.0	1545011.0	3042384.0	0.233685	-0.677610
     29151.91	0.13575	2151396.0	1703290.0	3350342.0	0.233555	-0.676501
     29152.40	0.12675	2013468.0	1593809.0	3130902.0	0.233732	-0.675194
     29152.88	0.13308	2105020.0	1666212.0	3269527.0	0.233772	-0.674093
     29153.37	0.14536	2299073.0	1819670.0	3566274.0	0.233851	-0.672866
     29153.86	0.15526	2463968.0	1949836.0	3816831.0	0.234028	-0.671675
     29154.35	0.10071	1592332.0	1260270.0	2462865.0	0.233874	-0.669999
     29154.84	0.13245	2094004.0	1656736.0	3233459.0	0.234229	-0.668703
     29155.33	0.12520	1988037.0	1573288.0	3066227.0	0.233980	-0.667280
     29155.82	0.14015	2225848.0	1761345.0	3426937.0	0.234060	-0.665589
     29156.31	0.12233	1938634.0	1533914.0	2979718.0	0.234161	-0.664006
     29156.79	0.13126	2076558.0	1643088.0	3187407.0	0.234134	-0.662630
     29157.28	0.12385	1956087.0	1547353.0	2996237.0	0.234400	-0.660811
     29157.77	0.13681	2162051.0	1710161.0	3305519.0	0.234470	-0.659006
     29158.26	0.12833	2029481.0	1605506.0	3097385.0	0.234341	-0.657119
     29158.75	0.11781	1865227.0	1475440.0	2841036.0	0.234427	-0.655213
     29159.24	0.12764	2025420.0	1601664.0	3078831.0	0.234734	-0.653507
     29159.73	0.12246	1941951.0	1535947.0	2945977.0	0.234546	-0.651293
     29160.22	0.12968	2060290.0	1629287.0	3118284.0	0.234704	-0.649140
     29160.71	0.13115	2075549.0	1640746.0	3133407.0	0.235075	-0.646970
     29161.19	0.12345	1957390.0	1547518.0	2948505.0	0.234960	-0.644646
     29161.68	0.12495	1981894.0	1566708.0	2977790.0	0.235076	-0.642205
     29162.17	0.12044	1906124.0	1506494.0	2856659.0	0.235287	-0.639868
     29162.66	0.12292	1946442.0	1538386.0	2909130.0	0.235269	-0.637120
     29163.15	0.12334	1949022.0	1540102.0	2904048.0	0.235479	-0.634257
     29163.64	0.12170	1929134.0	1523697.0	2864859.0	0.235932	-0.631380
     29164.13	0.11502	1819497.0	1437204.0	2693784.0	0.235861	-0.628247
     29164.62	0.13279	2092512.0	1652619.0	3087494.0	0.236004	-0.624998
     29165.11	0.11690	1846445.0	1457800.0	2714003.0	0.236334	-0.621496
     29165.60	0.12111	1917097.0	1513753.0	2808354.0	0.236220	-0.618007
     29166.09	0.11805	1869046.0	1475439.0	2726300.0	0.236473	-0.613990
     29166.57	0.12022	1905522.0	1503784.0	2768283.0	0.236771	-0.610243
     29167.06	0.12060	1892171.0	1492787.0	2737422.0	0.237080	-0.606372
     29167.55	0.14682	2289329.0	1806745.0	3296784.0	0.236732	-0.601421
     29168.04	0.12625	1975153.0	1558073.0	2829636.0	0.237196	-0.596698
     29168.53	0.13042	2048882.0	1615661.0	2919939.0	0.237550	-0.591819
     29169.02	0.12695	1997526.0	1574732.0	2830196.0	0.237824	-0.586261
     29169.51	0.13219	2086271.0	1644128.0	2938428.0	0.238168	-0.580665
     29170.00	0.12057	1903021.0	1499645.0	2662249.0	0.238214	-0.573943
     29170.49	0.11908	1877203.0	1478764.0	2608623.0	0.238576	-0.567616
     29170.98	0.12518	1977334.0	1557210.0	2728246.0	0.238854	-0.560763
     29171.47	0.12865	2031269.0	1599001.0	2779920.0	0.239282	-0.553043
     29171.96	0.12202	1927463.0	1516700.0	2615922.0	0.239668	-0.545080
     29172.45	0.13007	2056652.0	1617452.0	2766183.0	0.240227	-0.536616
     29172.94	0.12338	1945084.0	1528828.0	2588668.0	0.240804	-0.526642
     29173.42	0.12950	2030276.0	1595501.0	2674750.0	0.240984	-0.516668
     29173.91	0.12436	1963527.0	1542355.0	2557348.0	0.241432	-0.505660
     29174.40	0.13452	2128036.0	1670925.0	2737451.0	0.241822	-0.493650
     29174.89	0.12983	2052115.0	1610114.0	2602971.0	0.242566	-0.480349
     29175.38	0.12562	1987519.0	1558268.0	2484569.0	0.243312	-0.466524
     29175.87	0.13153	2071456.0	1623207.0	2545686.0	0.243848	-0.449996
     29176.36	0.13055	2055811.0	1610045.0	2480302.0	0.244408	-0.432118
     29176.85	0.12646	1991590.0	1558131.0	2357312.0	0.245446	-0.414035
     29177.34	0.12672	2001672.0	1564979.0	2318769.0	0.246110	-0.393164
     29177.83	0.12171	1917971.0	1497917.0	2166452.0	0.247192	-0.369015
     29178.32	0.12456	1965345.0	1533265.0	2160737.0	0.248268	-0.343050
     29178.81	0.12285	1927373.0	1501916.0	2053750.0	0.249416	-0.312926
     29179.30	0.12696	1997064.0	1554441.0	2058133.0	0.250562	-0.280683
     29179.79	0.12752	2006982.0	1559834.0	1991638.0	0.252053	-0.244378
     29180.28	0.12331	1941845.0	1506649.0	1848065.0	0.253751	-0.204251
     29180.77	0.12116	1909453.0	1478898.0	1731369.0	0.255520	-0.157615
     29181.26	0.11224	1764211.0	1363986.0	1518367.0	0.257292	-0.107224
     29181.75	0.10632	1668323.0	1286343.0	1353323.0	0.260016	-0.0507597
     29182.24	0.12295	1943599.0	1495611.0	1479936.0	0.262007	0.0105360
     29182.73	0.11548	1823974.0	1399475.0	1294089.0	0.264920	0.0782902
     29183.22	0.10997	1737869.0	1329473.0	1148958.0	0.267877	0.145927
     29183.71	0.11219	1771135.0	1350236.0	1081479.0	0.271341	0.221950
     29184.20	0.13442	2111549.0	1604074.0	1191399.0	0.274875	0.297418
     29184.68	0.11768	1853330.0	1402473.0	965854.0	0.278747	0.372980
     29185.17	0.12358	1940933.0	1462369.0	929460.0	0.283111	0.453209
     29185.66	0.12115	1901042.0	1425679.0	843107.0	0.287754	0.525310
     29186.15	0.12295	1931371.0	1442241.0	797295.0	0.292032	0.592729
     29186.64	0.13337	2106200.0	1564304.0	810629.0	0.297444	0.657386
     29187.13	0.12803	2014902.0	1488800.0	728580.0	0.302600	0.714628
     29187.62	0.12710	2004901.0	1473436.0	687414.0	0.307998	0.762416
     29188.11	0.13463	2119973.0	1549111.0	692648.0	0.313722	0.804915
     29188.60	0.13212	2082582.0	1512314.0	655029.0	0.319968	0.836717
     29189.09	0.12430	1957607.0	1412558.0	597400.0	0.326321	0.860571
     29189.58	0.12838	2027068.0	1454469.0	606310.0	0.331950	0.875005
     29190.07	0.12799	2021818.0	1442488.0	596787.0	0.337628	0.882564
     29190.56	0.12076	1908958.0	1355301.0	560589.0	0.342534	0.882791
     29191.05	0.14272	2249774.0	1588999.0	661361.0	0.347726	0.876560
     29191.54	0.13214	2088159.0	1469219.0	616984.0	0.351552	0.867643
     29192.03	0.12871	2033969.0	1425610.0	606456.0	0.355389	0.854723
     29192.52	0.13414	2116033.0	1479785.0	638518.0	0.357646	0.840502
     29193.01	0.12431	1956909.0	1365780.0	599200.0	0.359640	0.823886
     29193.50	0.14754	2326185.0	1620796.0	721807.0	0.361312	0.808915
     29193.99	0.12631	1985590.0	1383207.0	626400.0	0.361511	0.792171
     29194.48	0.12682	1993657.0	1388976.0	638920.0	0.361404	0.776543
     29194.97	0.13236	2078118.0	1448876.0	676246.0	0.360675	0.761986
     29195.46	0.12977	2048455.0	1429908.0	676329.0	0.359476	0.748686
     29195.95	0.12797	2018194.0	1411306.0	676114.0	0.357688	0.735909
     29196.44	0.13517	2132881.0	1494989.0	724457.0	0.355355	0.724452
     29196.93	0.11010	1733493.0	1218176.0	596424.0	0.352784	0.714158
     29197.42	0.13121	2068662.0	1456906.0	719320.0	0.350587	0.705764
     29197.92	0.12769	2013340.0	1422272.0	707972.0	0.347539	0.697606
     29198.41	0.13063	2061534.0	1460351.0	731890.0	0.344774	0.690802
     29198.90	0.11983	1889205.0	1341733.0	676149.0	0.342194	0.685304
     29199.39	0.12413	1958566.0	1394044.0	705407.0	0.340004	0.681189
     29199.88	0.13119	2064786.0	1473869.0	748343.0	0.337136	0.677785
     29200.37	0.11857	1867601.0	1336143.0	680606.0	0.334868	0.674559
     29200.86	0.13257	2084290.0	1494609.0	762571.0	0.332564	0.672924
     29201.35	0.11830	1861427.0	1337387.0	682994.0	0.330626	0.671987
     29201.84	0.12489	1965710.0	1414653.0	722412.0	0.328969	0.672044
     29202.33	0.12058	1897711.0	1367819.0	698153.0	0.327431	0.672535
     29202.82	0.11787	1852871.0	1337257.0	681817.0	0.326116	0.673614
     29203.31	0.13657	2149800.0	1553960.0	791068.0	0.324568	0.675178
     29203.80	0.12005	1891205.0	1368539.0	695046.0	0.323470	0.677521
     29204.29	0.11525	1813966.0	1314108.0	665595.0	0.322357	0.680232
     29204.78	0.12229	1920015.0	1392279.0	703186.0	0.321391	0.683076
     29205.27	0.12168	1913854.0	1388939.0	699128.0	0.320579	0.686462
     29205.76	0.13233	2084784.0	1514271.0	759944.0	0.319731	0.689445
     29206.25	0.12476	1962641.0	1426803.0	713719.0	0.318855	0.692702
     29206.74	0.12832	2022735.0	1470903.0	733652.0	0.318574	0.695597
     29207.23	0.13848	2168271.0	1577637.0	784579.0	0.318002	0.698536
     29207.72	0.12016	1884729.0	1372307.0	680580.0	0.317291	0.701303
     29208.21	0.13112	2060000.0	1500640.0	742564.0	0.316814	0.703538
     29208.70	0.11836	1862793.0	1357242.0	670355.0	0.316622	0.705403
     29209.19	0.12348	1944525.0	1416698.0	698436.0	0.316689	0.707241
     29209.69	0.12375	1942620.0	1416071.0	697282.0	0.316151	0.708451
     29210.18	0.12473	1962051.0	1430545.0	703781.0	0.315935	0.709344
     29210.67	0.12066	1893235.0	1380690.0	678690.0	0.315704	0.710174
     29211.16	0.13334	2096920.0	1530028.0	752180.0	0.315184	0.710066
     29211.65	0.11984	1884437.0	1375125.0	676224.0	0.315084	0.709776
     29212.14	0.12100	1901908.0	1388308.0	682912.0	0.314772	0.709475
     29212.63	0.13388	2103505.0	1536111.0	756990.0	0.314351	0.707659
     29213.12	0.13931	2190114.0	1600274.0	789537.0	0.313779	0.706483
     29213.61	0.13275	2085175.0	1523747.0	754054.0	0.313680	0.703464
     29214.10	0.13113	2060840.0	1506763.0	747079.0	0.313150	0.701548
     29214.59	0.12755	2002540.0	1464856.0	728659.0	0.312659	0.698306
     29215.08	0.12439	1951063.0	1427496.0	712805.0	0.312452	0.694469
     29215.57	0.13616	2136830.0	1564128.0	783938.0	0.311995	0.690754
     29216.06	0.11854	1859430.0	1361545.0	685833.0	0.311650	0.685741
     29216.56	0.11951	1876585.0	1374124.0	694931.0	0.311637	0.681759
     29217.05	0.12209	1912167.0	1400709.0	711592.0	0.311259	0.677229
     29217.54	0.12769	1991262.0	1459005.0	744785.0	0.311014	0.672414
     29218.03	0.11609	1821909.0	1334961.0	684567.0	0.310983	0.667871
     29218.52	0.13223	2075463.0	1520642.0	782331.0	0.311052	0.664610
     29219.01	0.12664	1983925.0	1454258.0	750634.0	0.310581	0.661333
     29219.50	0.14042	2202039.0	1613972.0	835383.0	0.310686	0.658563
     29219.99	0.11774	1836863.0	1346248.0	698032.0	0.310738	0.656812
     29220.48	0.095221	1488781.0	1091071.0	566575.0	0.310798	0.655306
     29220.97	0.10622	1665683.0	1220750.0	634131.0	0.310770	0.654965
     29221.47	0.12019	1864800.0	1366982.0	709760.0	0.310548	0.655434
     29221.96	0.11802	1852071.0	1357111.0	703749.0	0.310946	0.656692
     29222.45	0.11759	1844429.0	1351864.0	699894.0	0.310685	0.658311
     29222.94	0.11237	1762621.0	1291752.0	666929.0	0.310802	0.661071
     29223.43	0.13248	2077194.0	1522027.0	783950.0	0.310975	0.663453
     29223.92	0.11348	1772476.0	1298588.0	666966.0	0.311100	0.666294
     29224.41	0.12048	1893034.0	1386650.0	709171.0	0.311290	0.670549
     29224.90	0.12003	1884754.0	1380577.0	703854.0	0.311296	0.673686
     29225.39	0.13557	2111798.0	1547367.0	785668.0	0.310985	0.677776
     29225.89	0.13907	2176624.0	1594496.0	806550.0	0.311217	0.681547
     29226.38	0.13657	2140115.0	1567642.0	789634.0	0.311287	0.685758
     29226.87	0.13585	2130459.0	1560338.0	783057.0	0.311435	0.689452
     29227.36	0.16745	2627048.0	1923827.0	961725.0	0.311544	0.693343
     29227.85	0.098242	1535748.0	1124465.0	559761.0	0.311710	0.697553
     29228.34	0.11139	1745889.0	1278261.0	634123.0	0.311763	0.701013
     29228.83	0.11364	1781117.0	1304069.0	643891.0	0.311751	0.705715
     29229.32	0.13495	2114525.0	1547650.0	761003.0	0.312093	0.709856
     29229.81	0.12790	2001286.0	1464462.0	717485.0	0.312302	0.713491
     29230.31	0.14254	2235481.0	1635193.0	798339.0	0.312696	0.716983
     29230.80	0.13970	2186811.0	1599277.0	777658.0	0.312893	0.721020
     29231.29	0.15385	2411634.0	1763028.0	853951.0	0.313272	0.724914
     29231.78	0.11101	1733020.0	1266731.0	610817.0	0.313426	0.729397
     29232.27	0.12322	1932554.0	1412014.0	678369.0	0.313825	0.733081
     29232.76	0.12660	1977281.0	1444210.0	691255.0	0.314160	0.736809
     29233.25	0.13157	2059846.0	1503783.0	717455.0	0.314647	0.740029
     29233.75	0.13288	2080069.0	1517888.0	722175.0	0.315081	0.742808
     29234.24	0.14067	2200594.0	1604986.0	761124.0	0.315612	0.746074
     29234.73	0.19410	3042215.0	2218218.0	1049348.0	0.315882	0.748535
     29235.22	0.094483	1478869.0	1077951.0	508905.0	0.316216	0.750556
     29235.71	0.081408	1272035.0	926744.0	436473.0	0.316696	0.752951
     29236.20	0.12129	1894991.0	1379349.0	649081.0	0.317602	0.753809
     29236.69	0.11973	1869417.0	1360634.0	639819.0	0.317676	0.754521
     29237.19	0.13358	2084755.0	1516824.0	712994.0	0.318033	0.754901
     29237.68	0.12620	1974712.0	1436240.0	675053.0	0.318394	0.754993
     29238.17	0.12891	2020577.0	1469256.0	691059.0	0.318627	0.754286
     29238.66	0.14786	2299858.0	1671903.0	787084.0	0.318885	0.753383
     29239.15	0.10163	1583807.0	1151224.0	542965.0	0.319006	0.751536
     29239.64	0.11977	1867569.0	1356824.0	641103.0	0.319491	0.749712
     29240.14	0.12428	1940466.0	1409637.0	668165.0	0.319596	0.746552
     29240.63	0.11187	1738530.0	1262317.0	599808.0	0.320091	0.744095
     29241.12	0.11689	1818981.0	1320733.0	629490.0	0.320090	0.741032
     29241.61	0.12475	1945329.0	1412364.0	675470.0	0.320166	0.737611
     29242.10	0.12906	2011303.0	1460293.0	701284.0	0.320146	0.733479
     29242.59	0.11827	1848494.0	1342137.0	646665.0	0.320108	0.730190
     29243.09	0.11831	1849437.0	1342543.0	649133.0	0.320316	0.726683
     29243.58	0.12285	1917461.0	1391915.0	675983.0	0.320321	0.722268
     29244.07	0.12412	1937372.0	1405888.0	685440.0	0.320663	0.718363
     29244.56	0.13301	2079189.0	1508622.0	738594.0	0.320781	0.714204
     29245.05	0.12723	1986630.0	1441467.0	708504.0	0.320778	0.710261
     29245.55	0.13097	2040614.0	1480309.0	730631.0	0.321000	0.706098
     29246.04	0.12980	2014087.0	1461242.0	724266.0	0.320879	0.701883
     29246.53	0.13302	2066804.0	1499398.0	745730.0	0.320940	0.698455
     29247.02	0.12278	1917348.0	1390559.0	694347.0	0.321237	0.694489
     29247.51	0.12696	1976329.0	1433285.0	718324.0	0.321272	0.690804
     29248.00	0.11247	1759598.0	1276080.0	641502.0	0.321292	0.687736
     29248.50	0.12162	1890998.0	1371117.0	691711.0	0.321479	0.684213
     29248.99	0.13362	2085786.0	1512045.0	764620.0	0.321683	0.681839
     29249.48	0.13355	2074332.0	1504140.0	762814.0	0.321418	0.678962
     29249.97	0.11426	1774717.0	1286491.0	654238.0	0.321723	0.676202
     29250.46	0.13987	2156659.0	1563111.0	796341.0	0.321882	0.674406
     29250.96	0.11955	1855422.0	1345116.0	686151.0	0.321632	0.673138
     29251.45	0.12356	1922101.0	1392941.0	711851.0	0.322002	0.671304
     29251.94	0.12933	2007463.0	1454467.0	744933.0	0.322232	0.669101
     29252.43	0.13051	2029300.0	1470555.0	753514.0	0.322051	0.668648
     29252.92	0.12455	1938077.0	1404581.0	719998.0	0.321957	0.668246
     29253.42	0.13934	2167450.0	1570980.0	805518.0	0.321852	0.667969
     29253.91	0.14353	2230565.0	1616492.0	829176.0	0.321997	0.667581
     29254.40	0.11209	1742657.0	1263101.0	648116.0	0.321841	0.667255
     29254.89	0.11988	1867890.0	1353597.0	694011.0	0.322044	0.668033
     29255.39	0.12958	2020940.0	1464723.0	750303.0	0.321897	0.668944
     29255.88	0.12296	1914221.0	1387174.0	710146.0	0.322042	0.669553
     29256.37	0.12067	1878219.0	1361407.0	696308.0	0.321805	0.670482
     29256.86	0.12816	1996249.0	1447171.0	739250.0	0.321659	0.671730
     29257.35	0.12345	1921349.0	1392914.0	710079.0	0.321630	0.673777
     29257.85	0.18406	2850544.0	2067320.0	1052111.0	0.321257	0.675454
     29258.34	0.11596	1808023.0	1311141.0	666180.0	0.321336	0.677093
     29258.83	0.093388	1454275.0	1054824.0	534686.0	0.321134	0.679450
     29259.32	0.10757	1679341.0	1218411.0	616231.0	0.320854	0.681681
     29259.82	0.094584	1462009.0	1060803.0	535439.0	0.320785	0.683694
     29260.31	0.11770	1831253.0	1329229.0	668915.0	0.320401	0.686697
     29260.80	0.14133	2191989.0	1591481.0	798634.0	0.320144	0.689518
     29261.29	0.14851	2309770.0	1677355.0	839188.0	0.319930	0.692539
     29261.79	0.14710	2282160.0	1657741.0	826586.0	0.319667	0.695907
     29262.28	0.082487	1284249.0	933355.0	464122.0	0.319144	0.698638
     29262.77	0.074407	1159826.0	842948.0	417739.0	0.319120	0.702048
     29263.26	0.12500	1937073.0	1408346.0	695297.0	0.318762	0.705832
     29263.75	0.11946	1852318.0	1347245.0	662979.0	0.318376	0.709074
     29264.25	0.13153	2042349.0	1485700.0	728718.0	0.318215	0.712354
     29264.74	0.13666	2126937.0	1548095.0	756682.0	0.317658	0.715837
     29265.23	0.15032	2326727.0	1693844.0	825461.0	0.317462	0.718814
     29265.72	0.12767	1979904.0	1441931.0	700577.0	0.317065	0.721834
     29266.22	0.13513	2094405.0	1525816.0	738629.0	0.316740	0.725489
     29266.71	0.10681	1659635.0	1209073.0	583589.0	0.316744	0.728412
     29267.20	0.12533	1946643.0	1418509.0	682981.0	0.316500	0.730895
     29267.70	0.12620	1963659.0	1431387.0	687426.0	0.316166	0.733445
     29268.19	0.12983	2021119.0	1473407.0	706202.0	0.316074	0.735431
     29268.68	0.12727	1978160.0	1442865.0	690295.0	0.315536	0.737267
     29269.17	0.13882	2159658.0	1575740.0	752092.0	0.315225	0.739622
     29269.67	0.13199	2053521.0	1498443.0	714350.0	0.315129	0.740809
     29270.16	0.13710	2134231.0	1557523.0	741952.0	0.315010	0.741567
     29270.65	0.12695	1974598.0	1442066.0	685911.0	0.314288	0.743084
     29271.14	0.12937	2012803.0	1469591.0	698943.0	0.314544	0.743170
     29271.64	0.13593	2115515.0	1544889.0	734368.0	0.314346	0.743697
     29272.13	0.13322	2074143.0	1514942.0	719974.0	0.314171	0.743917
     29272.62	0.13331	2073667.0	1515028.0	720298.0	0.313885	0.743524
     29273.11	0.13032	2027757.0	1481598.0	705108.0	0.313809	0.742526
     29273.61	0.12043	1874881.0	1370137.0	652691.0	0.313634	0.741562
     29274.10	0.13377	2081700.0	1521697.0	725110.0	0.313359	0.741258
     29274.59	0.12600	1960158.0	1432546.0	683837.0	0.313572	0.739489
     29275.09	0.12441	1933299.0	1413664.0	675488.0	0.313043	0.738505
     29275.58	0.12683	1972713.0	1442490.0	690546.0	0.313039	0.736643
     29276.07	0.12238	1903057.0	1391423.0	666903.0	0.313135	0.735438
     29276.56	0.12908	2008760.0	1469019.0	705794.0	0.312923	0.733027
     29277.06	0.12439	1932737.0	1413599.0	680079.0	0.312798	0.731685
     29277.55	0.12367	1927261.0	1409818.0	679737.0	0.312639	0.729510
     29278.04	0.12095	1883961.0	1378499.0	665960.0	0.312381	0.727521
     29278.54	0.12933	2013181.0	1472710.0	713144.0	0.312612	0.725176
     29279.03	0.12253	1909114.0	1396573.0	677513.0	0.312618	0.723348
     29279.52	0.11118	1728906.0	1264990.0	614717.0	0.312425	0.721657
     29280.02	0.12614	1964515.0	1437657.0	699778.0	0.312231	0.720007
     29280.51	0.12296	1912192.0	1399241.0	682306.0	0.312320	0.718207
     29281.00	0.11374	1768239.0	1294064.0	632259.0	0.312196	0.716244
     29281.49	0.12466	1938656.0	1418787.0	694634.0	0.312193	0.714172
     29281.99	0.12209	1898811.0	1389582.0	681014.0	0.312225	0.713175
     29282.48	0.11785	1831454.0	1340827.0	658380.0	0.311824	0.711260
     29282.97	0.14197	2201186.0	1611409.0	792337.0	0.311887	0.709877
     29283.47	0.12366	1926049.0	1410092.0	694672.0	0.311816	0.707970
     29283.96	0.13397	2084876.0	1526054.0	752839.0	0.312024	0.706589
     29284.45	0.15131	2351025.0	1721541.0	850233.0	0.311632	0.705465
     29284.95	0.11488	1786770.0	1308422.0	647093.0	0.311588	0.704087
     29285.44	0.12350	1922488.0	1407649.0	696955.0	0.311699	0.702955
     29285.93	0.10373	1612146.0	1180796.0	585352.0	0.311377	0.701731
     29286.43	0.13106	2031128.0	1487510.0	737768.0	0.311488	0.701229
     29286.92	0.11772	1828290.0	1339002.0	664550.0	0.311457	0.700570
     29287.41	0.13372	2077657.0	1521716.0	756067.0	0.311402	0.699464
     29287.91	0.13983	2169343.0	1588672.0	789834.0	0.311526	0.698831
     29288.40	0.13199	2047905.0	1500527.0	746066.0	0.311001	0.698758
     29288.89	0.10834	1679856.0	1230673.0	612373.0	0.311147	0.697975
     29289.39	0.12264	1899464.0	1391353.0	692757.0	0.311295	0.697353
     29289.88	0.13532	2104096.0	1541069.0	767453.0	0.311410	0.697154
     29290.37	0.12618	1961291.0	1436490.0	715917.0	0.311400	0.696394
     29290.87	0.13462	2090649.0	1531510.0	763159.0	0.311220	0.696543
     29291.36	0.12850	1992525.0	1459805.0	727524.0	0.311100	0.696411
     29291.85	0.13797	2142407.0	1569538.0	782442.0	0.311149	0.696117
     29292.35	0.12398	1924087.0	1408980.0	702557.0	0.311586	0.695895
     29292.84	0.12179	1892778.0	1386492.0	691211.0	0.311269	0.696087
     29293.33	0.11644	1806565.0	1323249.0	659576.0	0.311337	0.696248
     29293.83	0.12443	1930755.0	1414044.0	704971.0	0.311457	0.696052
     29294.32	0.12857	1993310.0	1460082.0	727486.0	0.311304	0.696653
     29294.81	0.12541	1947635.0	1426082.0	710295.0	0.311685	0.697006
     29295.31	0.13634	2111508.0	1546238.0	769868.0	0.311578	0.697361
     29295.80	0.12771	1980780.0	1450423.0	722038.0	0.311635	0.697533
     29296.29	0.11054	1715869.0	1256277.0	624899.0	0.311767	0.698318
     29296.79	0.10800	1674884.0	1226017.0	610086.0	0.311973	0.697926
     29297.28	0.10797	1669782.0	1222274.0	607660.0	0.311980	0.698853
     29297.77	0.12677	1964650.0	1438149.0	714404.0	0.311957	0.699664
     29298.27	0.11046	1699165.0	1243487.0	617617.0	0.312217	0.699806
     29298.76	0.13416	2069777.0	1514886.0	751559.0	0.312101	0.700946
     29299.26	0.14477	2234366.0	1634664.0	810687.0	0.312520	0.701311
     29299.75	0.14440	2233252.0	1634146.0	809896.0	0.312338	0.701970
     29300.24	0.086879	1338228.0	979297.0	484926.0	0.312267	0.702839
     29300.74	0.084811	1311556.0	959398.0	474903.0	0.312663	0.703195
     29301.23	0.11685	1805547.0	1320621.0	652712.0	0.312762	0.704721
     29301.72	0.12390	1911854.0	1398679.0	690684.0	0.312545	0.705601
     29302.22	0.13035	2006419.0	1467428.0	724242.0	0.312840	0.706141
     29302.71	0.14623	2252899.0	1647734.0	812102.0	0.312817	0.707530
     29303.21	0.12758	1965046.0	1437195.0	707777.0	0.312822	0.708320
     29303.70	0.14639	2262924.0	1654117.0	814057.0	0.313390	0.708992
     29304.19	0.10390	1588266.0	1161291.0	571103.0	0.313111	0.709718
     29304.69	0.12572	1933890.0	1413808.0	694488.0	0.313247	0.710867
     29305.18	0.13868	2134757.0	1560626.0	765911.0	0.313266	0.711776
     29305.67	0.12269	1890015.0	1381677.0	677632.0	0.313287	0.712449
     29306.17	0.12963	1985375.0	1451706.0	711476.0	0.313068	0.713153
     29306.66	0.13800	2125562.0	1553697.0	760881.0	0.313399	0.713916
     29307.16	0.17408	2668200.0	1950015.0	954178.0	0.313567	0.714742
     29307.65	0.10633	1629224.0	1191016.0	582502.0	0.313297	0.715229
     29308.14	0.098610	1510332.0	1103927.0	539242.0	0.313456	0.716465
     29308.64	0.13540	2075480.0	1517338.0	741190.0	0.313235	0.716456
     29309.13	0.13660	2091847.0	1529056.0	746567.0	0.313397	0.716920
     29309.63	0.13532	2063421.0	1507675.0	735729.0	0.313797	0.717462
     29310.12	0.13741	2090096.0	1527092.0	744866.0	0.313845	0.717916
     29310.61	0.13483	2060838.0	1506000.0	734234.0	0.313656	0.718385
     29311.11	0.13935	2120787.0	1549543.0	755041.0	0.313827	0.718943
     29311.60	0.12601	1925802.0	1407171.0	685553.0	0.313761	0.719111
     29312.10	0.11579	1779287.0	1300069.0	632756.0	0.313795	0.720088
     29312.59	0.13212	2029570.0	1482823.0	721556.0	0.313876	0.720293
     29313.08	0.12181	1881790.0	1375115.0	669148.0	0.313686	0.720287
     29313.58	0.12535	1936567.0	1414780.0	688501.0	0.313943	0.720213
     29314.07	0.12186	1873496.0	1368868.0	665791.0	0.313822	0.720764
     29314.57	0.13628	2101364.0	1535097.0	746654.0	0.313993	0.720747
     29315.06	0.12639	1948257.0	1423330.0	692068.0	0.313936	0.721070
     29315.56	0.12980	2007382.0	1466260.0	712794.0	0.314116	0.721278
     29316.05	0.10527	1626663.0	1188198.0	577727.0	0.314093	0.721092
     29316.54	0.12501	1935158.0	1413400.0	687097.0	0.314191	0.721278
     29317.04	0.12026	1849811.0	1351293.0	656968.0	0.314022	0.721182
     29317.53	0.12091	1862520.0	1360665.0	661442.0	0.313957	0.721307
     29318.03	0.12870	1983928.0	1449107.0	704509.0	0.314131	0.721202
     29318.52	0.12325	1900424.0	1388387.0	674926.0	0.313934	0.721295
     29319.02	0.12450	1916102.0	1399550.0	680839.0	0.314142	0.720580
     29319.51	0.12455	1919723.0	1402423.0	682015.0	0.313979	0.720905
     29320.00	0.11639	1789111.0	1306890.0	635770.0	0.314069	0.720569
     29320.50	0.11666	1799707.0	1314562.0	639267.0	0.314120	0.720937
     29320.99	0.12946	1995214.0	1457500.0	709300.0	0.314029	0.720199
     29321.49	0.12929	1991308.0	1454537.0	708168.0	0.314104	0.719762
     29321.98	0.12452	1914805.0	1398834.0	681322.0	0.313977	0.719359
     29322.48	0.13738	2114922.0	1545174.0	752704.0	0.313881	0.719220
     29322.97	0.13240	2042789.0	1492396.0	727138.0	0.313933	0.719022
     29323.47	0.12646	1940599.0	1417302.0	691047.0	0.314242	0.718303
     29323.96	0.12133	1864881.0	1362148.0	663966.0	0.314134	0.718587
     29324.45	0.12874	1984237.0	1449475.0	706981.0	0.314033	0.717953
     29324.95	0.12174	1874325.0	1369403.0	668596.0	0.313874	0.716950
     29325.44	0.12622	1936826.0	1415028.0	691293.0	0.313901	0.716341
     29325.94	0.12295	1884187.0	1376357.0	672479.0	0.314056	0.716225
     29326.43	0.12479	1915864.0	1399656.0	684350.0	0.313942	0.715512
     29326.93	0.13217	2025744.0	1479954.0	724066.0	0.313926	0.714884
     29327.42	0.12543	1933771.0	1413108.0	691541.0	0.313680	0.714624
     29327.92	0.11308	1744898.0	1274853.0	624191.0	0.313865	0.714130
     29328.41	0.12697	1956572.0	1429334.0	700232.0	0.313985	0.713552
     29328.91	0.13795	2125183.0	1552843.0	761025.0	0.313770	0.713177
     29329.40	0.13023	2000344.0	1462072.0	716974.0	0.313465	0.712570
     29329.89	0.13182	2030466.0	1483745.0	727979.0	0.313696	0.712052
     29330.39	0.13776	2119860.0	1549400.0	760586.0	0.313482	0.711534
     29330.88	0.12835	1971460.0	1440616.0	707767.0	0.313704	0.710711
     29331.38	0.11744	1795882.0	1312933.0	645044.0	0.313233	0.710700
     29331.87	0.11176	1711935.0	1251288.0	615063.0	0.313451	0.710204
     29332.37	0.13122	2014623.0	1472790.0	724371.0	0.313274	0.709610
     29332.86	0.12047	1849259.0	1351995.0	665327.0	0.313204	0.709058
     29333.36	0.12261	1872367.0	1369077.0	673989.0	0.313067	0.708678
     29333.85	0.13176	2019474.0	1476373.0	727121.0	0.313249	0.708251
     29334.35	0.12731	1948526.0	1424888.0	702072.0	0.312980	0.707813
     29334.84	0.12121	1864575.0	1363223.0	671907.0	0.313181	0.707487
     29335.34	0.11389	1746397.0	1277056.0	629714.0	0.312997	0.707047
     29335.83	0.12132	1864174.0	1363170.0	672247.0	0.313005	0.706942
     29336.33	0.11766	1809973.0	1323644.0	652896.0	0.312923	0.706726
     29336.82	0.11919	1835121.0	1342209.0	662205.0	0.312794	0.706497
     29337.32	0.11942	1837513.0	1344024.0	663345.0	0.312745	0.706128
     29337.81	0.10681	1644260.0	1202821.0	594126.0	0.312621	0.705333
     29338.31	0.12726	1963578.0	1436225.0	709858.0	0.312750	0.704708
     29338.80	0.12530	1927339.0	1409782.0	696690.0	0.312705	0.704850
     29339.30	0.11227	1727661.0	1264079.0	624729.0	0.312425	0.704781
     29339.79	0.11415	1756760.0	1285380.0	635267.0	0.312417	0.704764
     29340.29	0.11711	1802331.0	1318923.0	651914.0	0.312265	0.704658
     29340.78	0.12402	1909776.0	1397242.0	691111.0	0.312486	0.703955
     29341.28	0.12384	1908052.0	1396232.0	690831.0	0.312306	0.703637
     29341.77	0.13850	2131702.0	1560465.0	771955.0	0.311937	0.703813
     29342.27	0.16236	2502537.0	1831717.0	906670.0	0.312051	0.703231
     29342.76	0.12779	1964203.0	1437407.0	711507.0	0.312246	0.703211
     29343.26	0.11699	1802162.0	1319287.0	653181.0	0.311896	0.702992
     29343.75	0.11035	1693033.0	1239148.0	613363.0	0.312098	0.703222
     29344.25	0.12175	1872361.0	1370814.0	678460.0	0.311795	0.703334
     29344.74	0.13767	2117907.0	1550712.0	767676.0	0.311714	0.703102
     29345.24	0.12985	1997864.0	1462466.0	724479.0	0.311955	0.702427
     29345.73	0.12707	1957509.0	1433515.0	709762.0	0.311543	0.702955
     29346.23	0.13351	2057475.0	1506284.0	745995.0	0.311834	0.702682
     29346.72	0.15405	2368318.0	1734885.0	859051.0	0.311239	0.702868
     29347.22	0.10981	1686169.0	1234786.0	611440.0	0.311561	0.702836
     29347.72	0.13045	2008717.0	1471820.0	728948.0	0.310996	0.702653
     29348.21	0.12857	1978846.0	1449383.0	717570.0	0.311376	0.703023
     29348.71	0.13740	2114591.0	1548729.0	767031.0	0.311427	0.702663
     29349.20	0.12564	1930238.0	1413782.0	700284.0	0.311375	0.702538
     29349.70	0.13800	2122705.0	1555125.0	769916.0	0.311135	0.703030
     29350.19	0.13786	2119192.0	1552804.0	768645.0	0.310973	0.703188
     29350.69	0.13409	2063486.0	1512190.0	748490.0	0.310838	0.703256
     29351.18	0.11484	1765336.0	1293560.0	640119.0	0.310943	0.703499
     29351.68	0.13036	1993175.0	1461076.0	723099.0	0.310556	0.703382
     29352.17	0.12283	1883547.0	1380674.0	682962.0	0.310585	0.703888
     29352.67	0.12450	1907904.0	1398693.0	691866.0	0.310467	0.703901
     29353.16	0.12692	1953634.0	1431822.0	708198.0	0.310743	0.703979
     29353.66	0.12502	1921202.0	1408646.0	696468.0	0.310322	0.704362
     29354.16	0.12532	1927764.0	1413506.0	698784.0	0.310288	0.704487
     29354.65	0.13754	2112208.0	1548967.0	765531.0	0.310146	0.704774
     29355.15	0.11345	1743495.0	1278321.0	631762.0	0.310344	0.704790
     29355.64	0.13121	2015470.0	1478193.0	730273.0	0.310032	0.705157
     29356.14	0.12187	1870715.0	1372009.0	677851.0	0.310045	0.705104
     29356.63	0.12790	1966034.0	1441955.0	712102.0	0.310018	0.705534
     29357.13	0.12066	1854047.0	1359814.0	671310.0	0.310023	0.705872
     29357.63	0.13208	2031204.0	1490343.0	735421.0	0.309622	0.706318
     29358.12	0.11366	1745436.0	1280705.0	632077.0	0.309594	0.706155
     29358.62	0.11650	1787333.0	1311596.0	647256.0	0.309480	0.706258
     29359.11	0.12744	1954951.0	1434225.0	707502.0	0.309740	0.706639
     29359.61	0.11824	1812882.0	1330303.0	655978.0	0.309511	0.707035
     29360.10	0.10859	1669483.0	1225140.0	604005.0	0.309459	0.707228
     29360.60	0.12979	1994395.0	1464026.0	721741.0	0.309151	0.707279
     29361.09	0.12669	1943620.0	1426746.0	703108.0	0.309156	0.707641
     29361.59	0.13542	2078293.0	1525884.0	751640.0	0.308973	0.708072
     29362.09	0.12005	1836860.0	1348460.0	664397.0	0.309094	0.707839
     29362.58	0.13300	2039726.0	1497952.0	737760.0	0.308717	0.708236
     29363.08	0.12553	1924993.0	1413756.0	695775.0	0.308672	0.708979
     29363.57	0.13872	2128826.0	1563459.0	769824.0	0.308670	0.708494
     29364.07	0.11722	1795434.0	1318239.0	648916.0	0.308950	0.708749
     29364.57	0.12639	1937301.0	1422863.0	700506.0	0.308625	0.708623
     29365.06	0.12125	1860971.0	1366790.0	673088.0	0.308633	0.708344
     29365.56	0.13511	2067899.0	1519220.0	747599.0	0.308336	0.709086
     29366.05	0.12012	1838147.0	1350678.0	664524.0	0.308151	0.709291
     29366.55	0.12425	1900051.0	1396068.0	687077.0	0.308221	0.708969
     29367.05	0.13061	1999455.0	1469041.0	723241.0	0.308265	0.708623
     29367.54	0.12515	1879401.0	1380760.0	679698.0	0.308319	0.708741
     29368.04	0.11901	1797438.0	1320934.0	650033.0	0.308023	0.709071
     29368.53	0.13127	1981271.0	1456341.0	716683.0	0.307811	0.709049
     29369.03	0.13262	2011589.0	1478358.0	727550.0	0.307993	0.709005
     29369.53	0.13366	2041792.0	1500588.0	738752.0	0.307971	0.708650
     29370.02	0.12324	1888321.0	1387562.0	683116.0	0.308140	0.708639
     29370.52	0.12835	1959857.0	1440490.0	709565.0	0.307888	0.708087
     29371.01	0.13245	2027367.0	1490219.0	734130.0	0.307815	0.707992
     29371.51	0.12121	1857787.0	1365854.0	672669.0	0.307606	0.708282
     29372.01	0.13043	1997821.0	1468638.0	723582.0	0.307722	0.707877
     29372.50	0.12985	1990715.0	1463137.0	721095.0	0.307911	0.707567
     29373.00	0.12218	1869838.0	1374569.0	677600.0	0.307712	0.707338
     29373.49	0.12501	1910648.0	1405133.0	692928.0	0.307310	0.706961
     29373.99	0.12755	1950120.0	1433431.0	706558.0	0.307820	0.707421
     29374.49	0.12108	1843169.0	1354984.0	668113.0	0.307697	0.707088
     29374.98	0.12397	1878070.0	1381119.0	681407.0	0.307351	0.706490
     29375.48	0.12178	1845115.0	1356312.0	669708.0	0.307772	0.705683
     29375.98	0.12061	1840813.0	1353696.0	668454.0	0.307369	0.705626
     29376.47	0.11673	1766189.0	1298346.0	641374.0	0.307733	0.705234
     29376.97	0.12332	1884299.0	1385392.0	684578.0	0.307573	0.704936
     29377.46	0.11943	1827768.0	1344102.0	664465.0	0.307369	0.704499
     29377.96	0.11982	1830204.0	1346094.0	665561.0	0.307220	0.704332
     29378.46	0.11428	1746905.0	1284611.0	635712.0	0.307390	0.703466
     29378.95	0.13009	1981656.0	1457205.0	721433.0	0.307413	0.703036
     29379.45	0.095343	1458726.0	1072552.0	531065.0	0.307523	0.702912
     29379.95	0.12258	1875596.0	1379127.0	683064.0	0.307476	0.702617
     29380.44	0.11488	1755514.0	1290803.0	639647.0	0.307497	0.702103
     29380.94	0.11439	1745502.0	1283818.0	636574.0	0.307204	0.701493
     29381.44	0.13281	2028473.0	1491659.0	740136.0	0.307394	0.700810
     29381.93	0.11901	1815148.0	1334768.0	662622.0	0.307410	0.700308
     29382.43	0.14290	2180573.0	1603121.0	796318.0	0.307635	0.699709
     29382.93	0.14398	2196442.0	1614852.0	802203.0	0.307595	0.699637
     29383.42	0.12269	1869900.0	1375130.0	683355.0	0.307337	0.699289
     29383.92	0.10792	1645675.0	1210392.0	601734.0	0.307206	0.698884
     29384.41	0.13329	2035055.0	1496344.0	744565.0	0.307498	0.697980
     29384.91	0.13620	2085078.0	1533460.0	763399.0	0.307280	0.697501
     29385.41	0.12460	1901613.0	1398469.0	696613.0	0.307324	0.696903
     29385.90	0.12896	1966953.0	1445993.0	720447.0	0.307689	0.696680
     29386.40	0.14028	2146039.0	1577942.0	786325.0	0.307502	0.696507
     29386.90	0.13148	2002795.0	1472917.0	734522.0	0.307299	0.695780
     29387.39	0.12143	1856236.0	1365024.0	680927.0	0.307379	0.695472
     29387.89	0.12416	1897224.0	1395684.0	696456.0	0.307007	0.695135
     29388.39	0.14092	2155328.0	1585057.0	791792.0	0.307323	0.694077
     29388.88	0.12839	1962305.0	1443560.0	721219.0	0.307008	0.693925
     29389.38	0.13131	2004687.0	1474556.0	737213.0	0.307131	0.693235
     29389.88	0.13612	2078672.0	1529007.0	764547.0	0.307111	0.693090
     29390.37	0.13696	2092217.0	1538711.0	770064.0	0.307279	0.692227
     29390.87	0.13015	1990338.0	1463824.0	732807.0	0.307252	0.691925
     29391.37	0.14490	2215180.0	1629266.0	815780.0	0.307204	0.691740
     29391.87	0.11314	1725159.0	1269323.0	636174.0	0.306836	0.690767
     29392.36	0.12539	1913706.0	1407560.0	705439.0	0.307184	0.690793
     29392.86	0.12604	1918802.0	1411525.0	707961.0	0.307030	0.690037
     29393.36	0.12781	1944370.0	1430258.0	717605.0	0.307083	0.689691
     29393.85	0.12704	1937382.0	1425172.0	715226.0	0.307045	0.689449
     29394.35	0.13048	1993277.0	1466402.0	735925.0	0.306968	0.689439
     29394.85	0.12264	1872155.0	1376758.0	691281.0	0.307359	0.688940
     29395.34	0.12868	1964774.0	1445521.0	726209.0	0.306907	0.688387
     29395.84	0.11442	1734764.0	1276588.0	641543.0	0.306680	0.688070
     29396.34	0.13760	2086180.0	1534926.0	771674.0	0.306852	0.687675
     29396.83	0.11129	1686618.0	1240709.0	623795.0	0.307042	0.687616
     29397.33	0.13101	1993648.0	1467033.0	738048.0	0.306724	0.686988
     29397.83	0.12227	1857122.0	1366705.0	687420.0	0.306625	0.687213
     29398.33	0.12137	1852082.0	1363217.0	686065.0	0.306463	0.686630
     29398.82	0.13015	1980215.0	1457640.0	733581.0	0.306387	0.686636
     29399.32	0.11623	1772711.0	1304454.0	656845.0	0.306725	0.686092
     29399.82	0.11631	1769320.0	1302287.0	655601.0	0.306473	0.686325
     29400.31	0.12633	1922598.0	1414879.0	712328.0	0.306633	0.686261
     29400.81	0.11671	1782418.0	1311554.0	660693.0	0.306758	0.685679
     29401.31	0.11307	1722487.0	1268019.0	638870.0	0.306313	0.685510
     29401.80	0.13795	2104722.0	1549035.0	780673.0	0.306551	0.685231
     29402.30	0.12274	1866443.0	1373689.0	692159.0	0.306535	0.685439
     29402.80	0.12346	1872304.0	1378664.0	694787.0	0.306055	0.685265
     29403.30	0.13225	2017511.0	1485008.0	748890.0	0.306444	0.684583
     29403.79	0.12324	1880098.0	1383722.0	697780.0	0.306547	0.684628
     29404.29	0.13646	2081413.0	1532347.0	772727.0	0.306246	0.684630
     29404.79	0.13238	2010686.0	1480475.0	746510.0	0.306113	0.684709
     29405.29	0.11983	1826354.0	1344849.0	678089.0	0.306040	0.684758
     29405.78	0.12519	1906014.0	1403576.0	707551.0	0.305991	0.684969
     29406.28	0.12005	1830687.0	1347820.0	679417.0	0.306203	0.685009
     29406.78	0.12663	1926384.0	1418810.0	715421.0	0.305826	0.684703
     29407.27	0.12449	1893781.0	1394562.0	703280.0	0.305995	0.684581
     29407.77	0.12379	1885561.0	1388616.0	700115.0	0.305918	0.684818
     29408.27	0.12641	1921450.0	1415249.0	713701.0	0.305775	0.684597
     29408.77	0.12369	1885978.0	1388922.0	700259.0	0.305919	0.684833
     29409.26	0.12533	1909708.0	1406654.0	709105.0	0.305737	0.684966
     29409.76	0.13169	2007071.0	1478149.0	745618.0	0.305886	0.684333
     29410.26	0.13231	2016078.0	1485141.0	748621.0	0.305644	0.685032
     29410.76	0.13042	1979971.0	1458742.0	735277.0	0.305508	0.685082
     29411.25	0.13248	2010705.0	1480706.0	746411.0	0.305966	0.684998
     29411.75	0.12441	1890806.0	1393026.0	701881.0	0.305525	0.685470
     29412.25	0.13459	2046050.0	1507609.0	759708.0	0.305386	0.685346
     29412.75	0.12444	1890230.0	1392431.0	701764.0	0.305647	0.685209
     29413.24	0.12192	1855698.0	1367056.0	688856.0	0.305601	0.685383
     29413.74	0.13512	2055562.0	1514502.0	763339.0	0.305463	0.685140
     29414.24	0.12354	1877024.0	1383099.0	696760.0	0.305361	0.685641
     29414.74	0.12494	1896194.0	1397331.0	703920.0	0.305285	0.685655
     29415.23	0.13425	2040850.0	1504312.0	757679.0	0.305031	0.685831
     29415.73	0.13549	2059474.0	1517728.0	764582.0	0.305236	0.685640
     29416.23	0.11102	1687743.0	1243672.0	626109.0	0.305324	0.686299
     29416.73	0.11263	1713168.0	1262851.0	635798.0	0.304972	0.686246
     29417.22	0.11977	1823633.0	1344165.0	676749.0	0.305058	0.686228
     29417.72	0.11684	1776726.0	1309793.0	659067.0	0.304903	0.686799
     29418.22	0.11714	1776881.0	1309792.0	658992.0	0.304991	0.686912
     29418.72	0.12387	1884535.0	1389108.0	699069.0	0.305019	0.686668
     29419.22	0.11238	1708644.0	1259582.0	633723.0	0.304920	0.686923
     29419.71	0.12824	1950862.0	1438576.0	723843.0	0.304618	0.686834
     29420.21	0.099641	1511312.0	1114264.0	560399.0	0.304784	0.687300
     29420.71	0.11295	1712829.0	1262979.0	635278.0	0.304673	0.687166
     29421.21	0.12281	1866410.0	1376227.0	692042.0	0.304671	0.687454
     29421.70	0.12367	1876857.0	1383826.0	696220.0	0.304746	0.686942
     29422.20	0.11989	1819650.0	1342283.0	674970.0	0.304272	0.687459
     29422.70	0.12860	1949445.0	1438192.0	723190.0	0.304158	0.687470
     29423.20	0.12534	1900375.0	1401787.0	704705.0	0.304303	0.687724
     29423.70	0.16477	2501861.0	1844955.0	927673.0	0.304580	0.687531
     29424.19	0.11148	1691678.0	1247754.0	627293.0	0.304376	0.687687
     29424.69	0.11084	1675396.0	1235897.0	621386.0	0.304253	0.687600
     29425.19	0.13710	2083197.0	1536903.0	772486.0	0.304134	0.687911
     29425.69	0.12644	1908247.0	1407956.0	707640.0	0.304046	0.687959
     29426.19	0.12030	1826307.0	1347436.0	677500.0	0.304092	0.687549
     29426.68	0.13933	2111747.0	1558168.0	783648.0	0.304005	0.687306
     29427.18	0.13066	1980814.0	1461738.0	734501.0	0.303882	0.688190
     29427.68	0.13945	2115396.0	1560824.0	784863.0	0.304028	0.687460
     29428.18	0.12725	1931530.0	1425143.0	716490.0	0.304040	0.687663
     29428.68	0.12032	1823225.0	1345669.0	676630.0	0.303716	0.687522
     29429.17	0.12178	1845498.0	1361829.0	684933.0	0.303921	0.687263
     29429.67	0.14256	2157577.0	1592361.0	800557.0	0.303768	0.687665
     29430.17	0.13591	2061702.0	1521583.0	765427.0	0.303781	0.687073
     29430.67	0.12930	1959967.0	1446382.0	727571.0	0.303862	0.687109
     29431.17	0.13920	2109259.0	1556475.0	782844.0	0.303913	0.687245
     29431.66	0.12988	1960591.0	1447120.0	728005.0	0.303671	0.687023
     29432.16	0.12240	1854411.0	1368682.0	688726.0	0.303719	0.686760
     29432.66	0.13762	2083672.0	1538085.0	773901.0	0.303594	0.686849
     29433.16	0.13086	1983232.0	1463902.0	737316.0	0.303622	0.685844
     29433.66	0.12692	1920374.0	1417423.0	713388.0	0.303680	0.686570
     29434.16	0.12398	1877873.0	1386152.0	697972.0	0.303608	0.686108
     29434.65	0.12194	1845806.0	1362223.0	685972.0	0.303798	0.686036
     29435.15	0.12628	1910542.0	1410337.0	710460.0	0.303558	0.685671
     29435.65	0.12046	1820101.0	1343536.0	676681.0	0.303587	0.685860
     29436.15	0.12929	1958216.0	1445380.0	728446.0	0.303662	0.685214
     29436.65	0.12247	1851327.0	1366479.0	688745.0	0.303665	0.685122
     29437.15	0.12834	1935611.0	1428440.0	720224.0	0.303840	0.684776
     29437.64	0.12311	1853551.0	1368732.0	690149.0	0.303218	0.684733
     29438.14	0.12738	1925017.0	1421083.0	716935.0	0.303516	0.684189
     29438.64	0.11890	1796234.0	1326282.0	669274.0	0.303313	0.683941
     29439.14	0.12708	1921956.0	1418732.0	716365.0	0.303580	0.683329
     29439.64	0.11631	1760430.0	1299635.0	656119.0	0.303475	0.683497
     29440.14	0.10863	1643086.0	1213239.0	613058.0	0.303283	0.682589
     29440.63	0.12747	1926278.0	1421999.0	718198.0	0.303526	0.683074
     29441.13	0.11719	1771694.0	1307993.0	661052.0	0.303442	0.682417
     29441.63	0.12004	1812799.0	1338705.0	676495.0	0.303169	0.682533
     29442.13	0.12992	1958947.0	1446613.0	731519.0	0.303182	0.681857
     29442.63	0.13484	2033356.0	1501299.0	759847.0	0.303357	0.680969
     29443.13	0.12346	1862985.0	1375571.0	695822.0	0.303311	0.681530
     29443.63	0.12794	1926082.0	1422101.0	719844.0	0.303353	0.680856
     29444.12	0.12159	1836254.0	1356101.0	686852.0	0.303114	0.680250
     29444.62	0.12823	1940072.0	1432675.0	725707.0	0.303182	0.680152
     29445.12	0.13285	2005369.0	1480987.0	750520.0	0.303119	0.679698
     29445.62	0.12437	1868726.0	1379944.0	699454.0	0.303214	0.679498
     29446.12	0.12367	1869092.0	1380709.0	700084.0	0.302856	0.679152
     29446.62	0.12142	1835312.0	1355236.0	687447.0	0.303239	0.678746
     29447.12	0.13329	2004727.0	1480658.0	751311.0	0.303021	0.678422
     29447.62	0.11329	1707375.0	1261130.0	640161.0	0.302949	0.678044
     29448.11	0.12678	1913526.0	1412877.0	717822.0	0.303320	0.677162
     29448.61	0.13363	2013438.0	1486782.0	755273.0	0.303230	0.677290
     29449.11	0.12384	1865744.0	1378402.0	700859.0	0.302735	0.676373
     29449.61	0.13343	2008955.0	1483822.0	754650.0	0.302993	0.676122
     29450.11	0.11747	1768890.0	1306487.0	664725.0	0.303010	0.675724
     29450.61	0.13482	2021271.0	1493371.0	759976.0	0.302691	0.675504
     29451.11	0.13787	2079906.0	1536543.0	782243.0	0.302788	0.675125
     29451.61	0.12134	1821831.0	1345699.0	685470.0	0.302928	0.674564
     29452.10	0.13417	2013362.0	1487509.0	757916.0	0.302703	0.674286
     29452.60	0.13034	1960777.0	1448915.0	738297.0	0.302526	0.674224
     29453.10	0.12208	1833302.0	1354535.0	691018.0	0.302660	0.673048
     29453.60	0.12125	1822502.0	1346571.0	687092.0	0.302649	0.672848
     29454.10	0.12617	1894322.0	1399903.0	714362.0	0.302458	0.672768
     29454.60	0.12768	1919677.0	1418303.0	723974.0	0.302696	0.672461
     29455.10	0.13172	1986972.0	1468220.0	750069.0	0.302561	0.671641
     29455.60	0.11341	1708858.0	1262398.0	645003.0	0.302812	0.671513
     29456.10	0.11834	1780306.0	1315589.0	672538.0	0.302501	0.670981
     29456.59	0.12443	1869819.0	1381445.0	706607.0	0.302712	0.670411
     29457.09	0.12331	1859657.0	1374454.0	703263.0	0.302336	0.670081
     29457.59	0.11387	1707270.0	1261483.0	645552.0	0.302608	0.669938
     29458.09	0.12255	1843472.0	1362199.0	697354.0	0.302550	0.669562
     29458.59	0.11883	1776431.0	1312991.0	672064.0	0.302299	0.669709
     29459.09	0.12351	1854515.0	1370534.0	702014.0	0.302423	0.669002
     29459.59	0.10612	1596899.0	1180722.0	605099.0	0.301938	0.668489
     29460.09	0.10277	1550036.0	1146063.0	587488.0	0.301946	0.668232
     29460.59	0.12667	1914000.0	1415178.0	725768.0	0.301940	0.667780
     29461.09	0.10928	1644055.0	1215417.0	623573.0	0.302079	0.667377
     29461.59	0.13867	2087505.0	1543493.0	791927.0	0.301922	0.667334
     29462.09	0.12544	1890167.0	1397765.0	717638.0	0.301791	0.666665
     29462.58	0.12329	1858500.0	1374234.0	705680.0	0.301873	0.666490
     29463.08	0.14855	2240166.0	1656881.0	850705.0	0.301613	0.666627
     29463.58	0.11867	1783328.0	1318953.0	677536.0	0.301643	0.666131
     29464.08	0.12141	1817373.0	1344420.0	691180.0	0.301429	0.665318
     29464.58	0.12921	1933120.0	1430193.0	735403.0	0.301326	0.665146
     29465.08	0.13153	1965364.0	1453937.0	747615.0	0.301402	0.665142
     29465.58	0.13650	2051322.0	1517740.0	780782.0	0.301262	0.664682
     29466.08	0.13113	1971590.0	1458664.0	750711.0	0.301319	0.664255
     29466.58	0.13195	1980299.0	1465041.0	753999.0	0.301365	0.664247
     29467.08	0.16665	2505356.0	1853727.0	954315.0	0.301233	0.663960
     29467.58	0.10361	1556344.0	1151643.0	592979.0	0.301150	0.663786
     29468.08	0.096542	1441749.0	1066776.0	549711.0	0.301216	0.663004
     29468.58	0.14072	2103599.0	1556978.0	802219.0	0.300903	0.663120
     29469.08	0.14022	2103315.0	1556601.0	802147.0	0.301010	0.662968
     29469.58	0.12447	1859646.0	1376448.0	709456.0	0.300880	0.662763
     29470.07	0.14548	2176162.0	1611066.0	830731.0	0.300667	0.662345
     29470.57	0.14625	2192879.0	1623244.0	836996.0	0.300789	0.662363
     29471.07	0.13281	1992806.0	1475028.0	761087.0	0.300867	0.661685
     29471.57	0.11706	1746855.0	1293533.0	667397.0	0.300440	0.661747
     29472.07	0.12925	1939904.0	1436405.0	741053.0	0.300495	0.661827
     29472.57	0.12384	1862311.0	1379109.0	711379.0	0.300381	0.661988
     29473.07	0.13096	1966357.0	1456205.0	751314.0	0.300349	0.661765
     29473.57	0.12338	1849340.0	1369662.0	707051.0	0.300265	0.661216
     29474.07	0.12595	1882658.0	1394184.0	719656.0	0.300375	0.661291
     29474.57	0.14250	2119133.0	1569695.0	810681.0	0.300126	0.660762
     29475.07	0.11951	1791934.0	1327385.0	685466.0	0.300085	0.660867
     29475.57	0.11232	1679518.0	1244528.0	642578.0	0.299751	0.661023
     29476.07	0.12017	1799148.0	1332752.0	688304.0	0.300067	0.660771
     29476.57	0.12835	1920784.0	1422623.0	734578.0	0.300231	0.660961
     29477.07	0.12609	1894596.0	1403458.0	725070.0	0.300066	0.660426
     29477.57	0.12047	1801614.0	1334730.0	689304.0	0.299954	0.660802
     29478.07	0.12969	1933450.0	1432729.0	740344.0	0.299725	0.660221
     29478.57	0.12163	1822741.0	1351098.0	698225.0	0.299424	0.660131
     29479.07	0.12302	1846551.0	1368201.0	706804.0	0.299823	0.660499
     29479.57	0.11414	1707871.0	1265588.0	654084.0	0.299711	0.660056
     29480.07	0.12687	1890482.0	1400966.0	723904.0	0.299670	0.660258
     29480.57	0.11426	1704509.0	1262887.0	652834.0	0.299877	0.659833
     29481.07	0.12267	1837972.0	1362325.0	704092.0	0.299470	0.660039
     29481.57	0.12604	1888239.0	1399419.0	723203.0	0.299587	0.660122
     29482.07	0.12802	1918700.0	1422156.0	734932.0	0.299474	0.660151
     29482.57	0.15410	2314340.0	1715881.0	886640.0	0.299198	0.660243
     29483.07	0.11816	1771137.0	1312633.0	678249.0	0.299587	0.660276
     29483.57	0.11757	1761086.0	1305107.0	674555.0	0.299646	0.659987
     29484.07	0.12578	1876968.0	1391793.0	719273.0	0.299065	0.660107
     29484.57	0.12961	1932954.0	1432913.0	740519.0	0.299340	0.660113
     29485.07	0.12957	1931411.0	1432063.0	739829.0	0.299135	0.660452
     29485.57	0.11847	1778196.0	1317989.0	681182.0	0.299492	0.660033
     29486.07	0.12503	1873802.0	1389622.0	717829.0	0.298938	0.660556
     29486.57	0.14357	2148893.0	1593306.0	823490.0	0.299142	0.660015
     29487.07	0.11587	1724558.0	1278969.0	661003.0	0.298917	0.660051
     29487.57	0.12157	1812149.0	1344081.0	694522.0	0.298803	0.660242
     29488.07	0.11978	1790996.0	1328387.0	686316.0	0.298806	0.660383
     29488.57	0.12533	1865748.0	1383566.0	714986.0	0.298998	0.660157
     29489.07	0.13515	2021970.0	1499492.0	774861.0	0.298946	0.660198
     29489.57	0.13231	1980554.0	1468992.0	758927.0	0.298800	0.660426
     29490.07	0.15773	2365493.0	1754614.0	906267.0	0.298738	0.660670
     29490.57	0.13170	1973252.0	1464222.0	756534.0	0.298359	0.660332
     29491.07	0.092708	1391249.0	1031957.0	532967.0	0.298745	0.660753
     29491.57	0.12347	1852511.0	1374326.0	710008.0	0.298579	0.660442
     29492.07	0.12404	1854542.0	1375839.0	710412.0	0.298574	0.660974
     29492.57	0.12621	1891486.0	1402791.0	724677.0	0.298899	0.660493
     29493.07	0.12846	1918362.0	1423165.0	735098.0	0.298588	0.660635
     29493.57	0.13664	2046878.0	1518727.0	784450.0	0.298443	0.660645
     29494.07	0.13012	1947270.0	1444878.0	746113.0	0.298404	0.660903
     29494.57	0.10823	1617967.0	1200563.0	620155.0	0.298380	0.660576
     29495.07	0.11780	1764225.0	1309597.0	676222.0	0.297992	0.660953
     29495.57	0.12670	1895777.0	1407030.0	726954.0	0.298148	0.660373
     29496.07	0.11789	1760243.0	1306487.0	674706.0	0.298110	0.660820
     29496.57	0.11743	1760942.0	1307029.0	675290.0	0.298092	0.660370
     29497.07	0.12733	1912175.0	1419034.0	733041.0	0.298265	0.660530
     29497.57	0.13889	2076932.0	1541649.0	796265.0	0.298039	0.660676
     29498.07	0.11171	1670691.0	1239983.0	640553.0	0.298140	0.660521
     29498.57	0.097704	1465711.0	1088110.0	561834.0	0.297898	0.660991
     29499.07	0.10845	1623033.0	1204831.0	622502.0	0.297957	0.660348
     29499.57	0.10996	1649779.0	1224925.0	632833.0	0.297762	0.660428
     29500.07	0.12722	1903246.0	1412996.0	729854.0	0.297849	0.660623
     29500.58	0.11526	1729461.0	1284081.0	663550.0	0.297767	0.660194
     29501.08	0.12691	1898443.0	1409859.0	728247.0	0.297544	0.660605
     29501.58	0.12696	1901137.0	1411782.0	729472.0	0.297599	0.660287
     29502.08	0.12636	1893807.0	1406092.0	726288.0	0.297775	0.660623
     29502.58	0.13429	2011244.0	1493554.0	771982.0	0.297595	0.659953
     29503.08	0.11592	1738095.0	1291076.0	667022.0	0.297314	0.660408
     29503.58	0.14555	2174650.0	1615087.0	834744.0	0.297479	0.660019
     29504.08	0.11987	1795569.0	1333357.0	688951.0	0.297622	0.660285
     29504.58	0.13940	2085452.0	1549057.0	800399.0	0.297339	0.660291
     29505.08	0.13280	1985740.0	1475148.0	762601.0	0.297233	0.659779
     29505.58	0.15790	2366652.0	1758201.0	908922.0	0.297185	0.659787
     29506.08	0.13520	2022471.0	1502596.0	776602.0	0.297126	0.660022
     29506.58	0.10552	1578317.0	1172692.0	606316.0	0.297057	0.659656
     29507.08	0.12080	1810914.0	1345466.0	695640.0	0.297091	0.659663
     29507.58	0.13223	1977870.0	1469594.0	759905.0	0.297034	0.659548
     29508.09	0.12462	1866514.0	1386944.0	717389.0	0.296970	0.659240
     29508.59	0.16997	2542040.0	1888509.0	977083.0	0.297179	0.658971
     29509.09	0.15057	2253322.0	1674036.0	866306.0	0.297168	0.658755
     29509.59	0.19421	2906399.0	2159554.0	1117340.0	0.297013	0.658951
     29510.09	0.078700	1178043.0	875507.0	453098.0	0.296807	0.658695
     29510.59	0.070780	1058873.0	786871.0	407344.0	0.296896	0.658406
     29511.09	0.13413	2007518.0	1492019.0	772522.0	0.296769	0.658225
     29511.59	0.12384	1853197.0	1377670.0	713405.0	0.296519	0.658100
     29512.09	0.13234	1980006.0	1471537.0	762174.0	0.296792	0.657888
     29512.59	0.12103	1812604.0	1347401.0	698076.0	0.296587	0.657605
     29513.09	0.12343	1846761.0	1372630.0	710927.0	0.296705	0.657914
     29513.60	0.12859	1920427.0	1427571.0	739840.0	0.296573	0.657296
     29514.10	0.12653	1895243.0	1408806.0	730206.0	0.296605	0.657171
     29514.60	0.12305	1842026.0	1369642.0	709643.0	0.296317	0.657543
     29515.10	0.13132	1965031.0	1460829.0	757327.0	0.296504	0.656964
     29515.60	0.11996	1792946.0	1333157.0	691336.0	0.296310	0.656679
     29516.10	0.13541	2024695.0	1505418.0	780823.0	0.296348	0.656477
     29516.60	0.11577	1731965.0	1287798.0	668072.0	0.296323	0.656293
     29517.10	0.12607	1885431.0	1401821.0	727271.0	0.296384	0.656228
     29517.60	0.11616	1735166.0	1289905.0	669561.0	0.296535	0.655702
     29518.10	0.11643	1738776.0	1292677.0	670991.0	0.296466	0.655715
     29518.61	0.12125	1809763.0	1345519.0	698538.0	0.296416	0.655546
     29519.11	0.13056	1952232.0	1451492.0	753865.0	0.296381	0.655134
     29519.61	0.12000	1786179.0	1328562.0	690265.0	0.295982	0.654777
     29520.11	0.12439	1861813.0	1384470.0	719421.0	0.296233	0.654626
     29520.61	0.13047	1947407.0	1448434.0	752842.0	0.296016	0.654383
     29521.11	0.13136	1960770.0	1458434.0	758389.0	0.295974	0.653922
     29521.61	0.11888	1777445.0	1322171.0	687401.0	0.295902	0.654113
     29522.11	0.12944	1934765.0	1438911.0	748460.0	0.296099	0.653624
     29522.62	0.12427	1854734.0	1379307.0	717712.0	0.296160	0.653268
     29523.12	0.13507	2016300.0	1499936.0	780585.0	0.295842	0.653134
     29523.62	0.12792	1903996.0	1416428.0	737330.0	0.295817	0.652858
     29524.12	0.12304	1837210.0	1366588.0	711350.0	0.295931	0.652908
     29524.62	0.12403	1854005.0	1379264.0	718235.0	0.295798	0.652508
     29525.12	0.12697	1892182.0	1407555.0	733463.0	0.295877	0.651832
     29525.62	0.11444	1707235.0	1269975.0	661528.0	0.295878	0.652200
     29526.12	0.12929	1930050.0	1435988.0	748640.0	0.295693	0.651350
     29526.63	0.11854	1765074.0	1313208.0	684779.0	0.295720	0.651132
     29527.13	0.13148	1960059.0	1458119.0	760688.0	0.295827	0.650679
     29527.63	0.12415	1853702.0	1379114.0	719684.0	0.295743	0.650384
     29528.13	0.13231	1973019.0	1467803.0	766370.0	0.295798	0.649857
     29528.63	0.13176	1965755.0	1462424.0	763635.0	0.295781	0.649761
     29529.13	0.13112	1958015.0	1456925.0	760757.0	0.295603	0.649769
     29529.64	0.12648	1890112.0	1406102.0	734341.0	0.295815	0.649603
     29530.14	0.12767	1905485.0	1417645.0	740861.0	0.295740	0.648939
     29530.64	0.12340	1842105.0	1370585.0	716562.0	0.295671	0.648528
     29531.14	0.12435	1858568.0	1382873.0	722979.0	0.295643	0.648538
     29531.64	0.12670	1892814.0	1408462.0	736647.0	0.295566	0.648145
     29532.14	0.13102	1951860.0	1452871.0	759954.0	0.295241	0.648039
     29532.64	0.12623	1884799.0	1402727.0	734245.0	0.295403	0.647331
     29533.15	0.12693	1894952.0	1410265.0	738340.0	0.295416	0.647128
     29533.65	0.12171	1816490.0	1351914.0	708177.0	0.295385	0.646583
     29534.15	0.12504	1866971.0	1389367.0	727845.0	0.295469	0.646515
     29534.65	0.12031	1794018.0	1335092.0	699419.0	0.295458	0.646505
     29535.15	0.12019	1792388.0	1333788.0	698988.0	0.295526	0.646145
     29535.65	0.11266	1680178.0	1250360.0	655825.0	0.295468	0.645293
     29536.16	0.11807	1760750.0	1310639.0	687250.0	0.295225	0.645572
     29536.66	0.11424	1702837.0	1267504.0	664687.0	0.295246	0.645489
     29537.16	0.12296	1833645.0	1364783.0	716383.0	0.295310	0.644536
     29537.66	0.10462	1560705.0	1161734.0	609944.0	0.295224	0.644302
     29538.16	0.11953	1784324.0	1328234.0	697318.0	0.295189	0.644364
     29538.67	0.11318	1685405.0	1254432.0	658839.0	0.295323	0.643959
     29539.17	0.11869	1771295.0	1318716.0	692671.0	0.295052	0.643859
     29539.67	0.12789	1904447.0	1417952.0	745239.0	0.294978	0.643264
     29540.17	0.13543	2016496.0	1501181.0	789300.0	0.295109	0.642861
     29540.67	0.11225	1671802.0	1245006.0	654454.0	0.294762	0.643094
     29541.17	0.13903	2072026.0	1542820.0	811383.0	0.294915	0.642627
     29541.68	0.12416	1845090.0	1374021.0	722820.0	0.294787	0.642337
     29542.18	0.12626	1879498.0	1399250.0	736088.0	0.295068	0.642342
     29542.68	0.13624	2025551.0	1508226.0	793871.0	0.294908	0.641768
     29543.18	0.13910	2071839.0	1543188.0	812411.0	0.294586	0.641599
     29543.68	0.11876	1768426.0	1316831.0	693341.0	0.294862	0.641461
     29544.19	0.17928	2662936.0	1982397.0	1043953.0	0.295123	0.641292
     29544.69	0.10179	1514961.0	1128450.0	594534.0	0.294545	0.640822
     29545.19	0.10397	1547414.0	1152462.0	607322.0	0.294685	0.640597
     29545.69	0.12466	1854911.0	1381846.0	728231.0	0.294416	0.640557
     29546.19	0.13792	2053491.0	1529697.0	806119.0	0.294472	0.640594
     29546.70	0.12863	1912909.0	1425290.0	751257.0	0.294250	0.640383
     29547.20	0.13881	2069015.0	1541247.0	812669.0	0.294481	0.640023
     29547.70	0.15899	2369848.0	1765143.0	931259.0	0.294594	0.639450
     29548.20	0.12727	1896414.0	1412743.0	745183.0	0.294432	0.639659
     29548.71	0.11944	1777898.0	1324559.0	698942.0	0.294352	0.639267
     29549.21	0.12395	1841875.0	1372309.0	724412.0	0.294289	0.638890
     29549.71	0.13048	1941155.0	1446238.0	763516.0	0.294317	0.638787
     29550.21	0.13479	2003130.0	1492242.0	787906.0	0.294431	0.638656
     29550.71	0.13106	1946272.0	1450181.0	765562.0	0.294227	0.638833
     29551.22	0.12374	1840618.0	1371623.0	724168.0	0.294107	0.638727
     29551.72	0.12870	1906845.0	1420952.0	750151.0	0.294123	0.638808
     29552.22	0.11961	1780812.0	1327116.0	701191.0	0.294061	0.637983
     29552.72	0.12528	1861245.0	1386921.0	732509.0	0.294159	0.638366
     29553.23	0.12391	1842066.0	1372749.0	725292.0	0.294072	0.637996
     29553.73	0.13031	1938375.0	1444497.0	763385.0	0.294089	0.637754
     29554.23	0.12667	1884300.0	1403999.0	742100.0	0.294232	0.637596
     29554.73	0.12773	1901046.0	1417036.0	749218.0	0.293837	0.637293
     29555.24	0.12556	1864104.0	1389447.0	734651.0	0.293875	0.637266
     29555.74	0.13236	1965694.0	1465231.0	774865.0	0.293832	0.637079
     29556.24	0.10879	1616184.0	1204471.0	636852.0	0.294027	0.637258
     29556.74	0.11596	1723456.0	1284366.0	679371.0	0.294066	0.636853
     29557.24	0.11547	1702803.0	1269248.0	671322.0	0.293851	0.636931
     29557.75	0.12661	1877381.0	1399312.0	740554.0	0.293897	0.636337
     29558.25	0.12362	1832643.0	1366063.0	722870.0	0.293826	0.636459
     29558.75	0.11916	1758835.0	1311219.0	694249.0	0.293694	0.635882
     29559.26	0.11539	1700044.0	1267457.0	671053.0	0.293642	0.635920
     29559.76	0.14320	2115328.0	1577386.0	834904.0	0.293441	0.636208
     29560.26	0.11817	1742296.0	1299019.0	687880.0	0.293594	0.635750
     29560.76	0.12492	1844423.0	1375019.0	728025.0	0.293699	0.635887
     29561.27	0.13111	1941320.0	1447409.0	766281.0	0.293593	0.635981
     29561.77	0.13652	2019329.0	1505617.0	797429.0	0.293562	0.635565
     29562.27	0.13112	1942969.0	1448728.0	767226.0	0.293531	0.635660
     29562.77	0.12298	1817478.0	1355063.0	717369.0	0.293602	0.636013
     29563.28	0.13430	1981271.0	1477353.0	782689.0	0.293487	0.635272
     29563.78	0.15817	2317960.0	1728849.0	915735.0	0.293232	0.635484
     29564.28	0.067952	1002611.0	747862.0	396225.0	0.293144	0.635236
     29564.78	0.10841	1597584.0	1190985.0	631149.0	0.293712	0.634994
     29565.29	0.13852	2042819.0	1523336.0	807223.0	0.293428	0.635058
     29565.79	0.12730	1876754.0	1399782.0	741742.0	0.293227	0.635070
     29566.29	0.12997	1922280.0	1433776.0	759624.0	0.293200	0.635243
     29566.80	0.12721	1877990.0	1401028.0	742481.0	0.292996	0.634964
     29567.30	0.13848	2035661.0	1518573.0	804511.0	0.293050	0.635292
     29567.80	0.14827	2192193.0	1635349.0	866344.0	0.293046	0.635329
     29568.30	0.10711	1583807.0	1181571.0	626438.0	0.292987	0.634550
     29568.81	0.12452	1842280.0	1373897.0	728471.0	0.293353	0.634459
     29569.31	0.12740	1882979.0	1404478.0	744643.0	0.293189	0.634516
     29569.81	0.13024	1923582.0	1435101.0	760587.0	0.292954	0.634900
     29570.32	0.12828	1891800.0	1411190.0	748350.0	0.293095	0.634318
     29570.82	0.13257	1958427.0	1460975.0	774901.0	0.293038	0.634124
     29571.32	0.12607	1859493.0	1387679.0	735799.0	0.292671	0.634431
     29571.82	0.13964	2047136.0	1527610.0	810067.0	0.292737	0.634343
     29572.33	0.11122	1637852.0	1221983.0	648005.0	0.292911	0.634332
     29572.83	0.11125	1642059.0	1225214.0	649977.0	0.292835	0.633934
     29573.33	0.11579	1707153.0	1274155.0	675715.0	0.292544	0.634267
     29573.84	0.13359	1969942.0	1469728.0	779360.0	0.292927	0.634360
     29574.34	0.11722	1733273.0	1293631.0	685966.0	0.292559	0.634380
     29574.84	0.12389	1822805.0	1360796.0	721521.0	0.292307	0.634464
     29575.35	0.11961	1769003.0	1320421.0	700409.0	0.292465	0.634041
     29575.85	0.12092	1784316.0	1331983.0	706507.0	0.292366	0.634091
     29576.35	0.11117	1636092.0	1221746.0	648263.0	0.292029	0.633740
     29576.85	0.11679	1722724.0	1285917.0	682222.0	0.292435	0.633872
     29577.36	0.11489	1688392.0	1260962.0	668917.0	0.291902	0.633970
     29577.86	0.11410	1689523.0	1261582.0	669184.0	0.292080	0.634063
     29578.36	0.11378	1678415.0	1252899.0	664752.0	0.292390	0.633801
     29578.87	0.12360	1820250.0	1359272.0	721232.0	0.292025	0.633744
     29579.37	0.12221	1801402.0	1345244.0	713521.0	0.291990	0.634119
     29579.87	0.14403	2125312.0	1587388.0	842636.0	0.291829	0.633310
     29580.38	0.11858	1753319.0	1309648.0	695278.0	0.291752	0.633202
     29580.88	0.11603	1713775.0	1280023.0	679127.0	0.291820	0.633825
     29581.38	0.12079	1782378.0	1331481.0	706242.0	0.291657	0.634089
     29581.89	0.14462	2141014.0	1599036.0	848827.0	0.291879	0.633301
     29582.39	0.12664	1874486.0	1400423.0	743460.0	0.291560	0.633215
     29582.89	0.13305	1960348.0	1464669.0	777595.0	0.291493	0.633179
     29583.40	0.14066	2074641.0	1550268.0	823109.0	0.291360	0.633094
     29583.90	0.12278	1810288.0	1352968.0	718318.0	0.291185	0.633144
     29584.40	0.12054	1774950.0	1325977.0	704252.0	0.291623	0.632769
     29584.91	0.11777	1737371.0	1298194.0	689569.0	0.291399	0.632663
     29585.41	0.13623	2014585.0	1505210.0	799332.0	0.291481	0.632911
     29585.91	0.12936	1913477.0	1429964.0	759325.0	0.291273	0.632975
     29586.42	0.13379	1973676.0	1474982.0	783084.0	0.291252	0.633161
     29586.92	0.13831	2042416.0	1526698.0	810833.0	0.291026	0.632800
     29587.42	0.13517	1998483.0	1493691.0	793481.0	0.291138	0.632576
     29587.93	0.14554	2153183.0	1609473.0	854884.0	0.291040	0.632696
     29588.43	0.13672	2015486.0	1506691.0	800449.0	0.290945	0.632498
     29588.93	0.11208	1657127.0	1238550.0	658115.0	0.291144	0.632317
     29589.44	0.12674	1874740.0	1401755.0	744636.0	0.290745	0.632585
     29589.94	0.13348	1973771.0	1475851.0	784656.0	0.290711	0.631745
     29590.45	0.13022	1921970.0	1437159.0	763938.0	0.290682	0.631937
     29590.95	0.14763	2178132.0	1628821.0	865361.0	0.290611	0.632465
     29591.45	0.11423	1686444.0	1261131.0	669988.0	0.290613	0.632504
     29591.96	0.12755	1882393.0	1407696.0	748399.0	0.290590	0.631773
     29592.46	0.11788	1737244.0	1299496.0	690869.0	0.290323	0.631782
     29592.96	0.12188	1800236.0	1346214.0	715866.0	0.290622	0.631558
     29593.47	0.12475	1841650.0	1377563.0	732492.0	0.290346	0.631619
     29593.97	0.12482	1839243.0	1375878.0	731785.0	0.290262	0.631361
     29594.48	0.13422	1982613.0	1482732.0	788629.0	0.290529	0.631346
     29594.98	0.12583	1856962.0	1388963.0	738936.0	0.290384	0.631101
     29595.48	0.13146	1934709.0	1447563.0	770313.0	0.290075	0.630840
     29595.99	0.11124	1639576.0	1226545.0	652628.0	0.290236	0.630949
     29596.49	0.11832	1745805.0	1306069.0	695138.0	0.290194	0.630667
     29596.99	0.11710	1727964.0	1292533.0	687890.0	0.290340	0.630730
     29597.50	0.13221	1951489.0	1460074.0	777125.0	0.290106	0.630641
     29598.00	0.11695	1724170.0	1290634.0	686880.0	0.289612	0.630729
     29598.51	0.13029	1923752.0	1439300.0	766579.0	0.290121	0.629974
     29599.01	0.12167	1796508.0	1344183.0	716047.0	0.290058	0.629796
     29599.51	0.12427	1834946.0	1373040.0	731078.0	0.289988	0.630262
     29600.02	0.11705	1727139.0	1292722.0	688370.0	0.289716	0.630179
     29600.52	0.13236	1956086.0	1463582.0	780022.0	0.290059	0.629320
     29601.03	0.12852	1890604.0	1415058.0	754106.0	0.289726	0.629393
     29601.53	0.12243	1802917.0	1349665.0	719450.0	0.289549	0.629125
     29602.03	0.13216	1949084.0	1459106.0	777784.0	0.289536	0.629130
     29602.54	0.13017	1920756.0	1437911.0	766581.0	0.289527	0.629006
     29603.04	0.13284	1959903.0	1466882.0	782083.0	0.289756	0.628933
     29603.55	0.12736	1872870.0	1402210.0	747790.0	0.289422	0.628683
     29604.05	0.11583	1706678.0	1277522.0	681577.0	0.289627	0.628268
     29604.55	0.11701	1715226.0	1284316.0	684999.0	0.289319	0.628564
     29605.06	0.12747	1879842.0	1407739.0	751101.0	0.289203	0.628200
     29605.56	0.12669	1869374.0	1399324.0	747170.0	0.289614	0.627452
     29606.07	0.12817	1886845.0	1413039.0	754346.0	0.289163	0.627647
     29606.57	0.12847	1887737.0	1413618.0	754690.0	0.289226	0.627601
     29607.07	0.13796	2029556.0	1519685.0	811335.0	0.289314	0.627577
     29607.58	0.12775	1882906.0	1409864.0	753034.0	0.289323	0.627138
     29608.08	0.13198	1942914.0	1454430.0	776778.0	0.289575	0.627215
     29608.59	0.12733	1871179.0	1401307.0	748749.0	0.289163	0.626757
     29609.09	0.13617	2002669.0	1500091.0	801673.0	0.288955	0.626580
     29609.60	0.11959	1761364.0	1319024.0	705117.0	0.289196	0.626284
     29610.10	0.13657	2007441.0	1503556.0	803649.0	0.289028	0.626426
     29610.60	0.12329	1806366.0	1352712.0	723275.0	0.289206	0.626077
     29611.11	0.12964	1907127.0	1428579.0	763850.0	0.288918	0.626064
     29611.61	0.11825	1736212.0	1300322.0	695592.0	0.289094	0.625604
     29612.12	0.12158	1789700.0	1340185.0	717422.0	0.289240	0.624899
     29612.62	0.12702	1866264.0	1397973.0	748205.0	0.288915	0.625102
     29613.13	0.11922	1748758.0	1310255.0	701288.0	0.288684	0.625058
     29613.63	0.12609	1848293.0	1384654.0	741428.0	0.288812	0.624628
     29614.13	0.12478	1836166.0	1375733.0	736802.0	0.288693	0.624423
     29614.64	0.11941	1747998.0	1309517.0	701495.0	0.288813	0.624200
     29615.14	0.12883	1889517.0	1415780.0	758193.0	0.288641	0.624498
     29615.65	0.10635	1563796.0	1171610.0	627602.0	0.288737	0.624228
     29616.15	0.11346	1668490.0	1250186.0	669988.0	0.288627	0.623788
     29616.66	0.11624	1705272.0	1278036.0	685222.0	0.288400	0.623337
     29617.16	0.10735	1580889.0	1184315.0	634882.0	0.288823	0.623481
     29617.67	0.12347	1814080.0	1359508.0	729104.0	0.288456	0.623062
     29618.17	0.10994	1612612.0	1208443.0	648404.0	0.288522	0.622574
     29618.68	0.11464	1683201.0	1261324.0	676648.0	0.288535	0.622766
     29619.18	0.13971	2051302.0	1537147.0	825289.0	0.288547	0.621950
     29619.68	0.10937	1607833.0	1205180.0	646704.0	0.288258	0.622496
     29620.19	0.11449	1684038.0	1261874.0	677379.0	0.288597	0.622122
     29620.69	0.13545	1987238.0	1489556.0	799878.0	0.288268	0.621774
     29621.20	0.12717	1869266.0	1400934.0	752522.0	0.288407	0.621464
     29621.70	0.11860	1741144.0	1304952.0	700903.0	0.288376	0.621552
     29622.21	0.14230	2092815.0	1568778.0	843036.0	0.288213	0.621043
     29622.71	0.13153	1932530.0	1448357.0	778586.0	0.288400	0.620706
     29623.22	0.13283	1950508.0	1462259.0	786134.0	0.288107	0.620611
     29623.72	0.12522	1838708.0	1378333.0	741139.0	0.288188	0.620442
     29624.23	0.12495	1833286.0	1374606.0	739131.0	0.287943	0.620447
     29624.73	0.12394	1816253.0	1361370.0	732233.0	0.288284	0.620148
     29625.24	0.12926	1899850.0	1424326.0	766297.0	0.288076	0.619884
     29625.74	0.13607	1998607.0	1498673.0	806488.0	0.287870	0.619646
     29626.25	0.12679	1862492.0	1396201.0	751588.0	0.288160	0.619322
     29626.75	0.14027	2060998.0	1545161.0	831725.0	0.288062	0.619382
     29627.26	0.12981	1905107.0	1428246.0	769466.0	0.288091	0.618506
     29627.76	0.13571	1986612.0	1489530.0	802324.0	0.287970	0.618703
     29628.27	0.12981	1904329.0	1427990.0	769221.0	0.287862	0.618645
     29628.77	0.12401	1812033.0	1358934.0	732043.0	0.287749	0.618617
     29629.28	0.13324	1945010.0	1458581.0	786070.0	0.287803	0.618173
     29629.78	0.13219	1933600.0	1450120.0	781665.0	0.287737	0.617975
     29630.28	0.13188	1928504.0	1445962.0	779340.0	0.287970	0.618083
     29630.79	0.13035	1904790.0	1428144.0	770232.0	0.287996	0.617439
     29631.29	0.13296	1948308.0	1461042.0	788270.0	0.287811	0.617064
     29631.80	0.12232	1792833.0	1344733.0	725199.0	0.287602	0.617505
     29632.31	0.12558	1840615.0	1380830.0	744931.0	0.287415	0.617148
     29632.81	0.11958	1753564.0	1315488.0	710017.0	0.287443	0.616674
     29633.32	0.12651	1852596.0	1389579.0	750072.0	0.287587	0.616587
     29633.82	0.12164	1777571.0	1333522.0	720264.0	0.287424	0.615961
     29634.33	0.13501	1978551.0	1484267.0	801563.0	0.287444	0.616113
     29634.83	0.12973	1882400.0	1412358.0	762878.0	0.287287	0.615918
     29635.34	0.12854	1868312.0	1401831.0	757228.0	0.287256	0.615870
     29635.84	0.12239	1783546.0	1338111.0	723038.0	0.287345	0.615552
     29636.35	0.12780	1864126.0	1398091.0	755641.0	0.287685	0.615297
     29636.85	0.11380	1661361.0	1246668.0	674016.0	0.287163	0.614976
     29637.36	0.12723	1849254.0	1387259.0	749934.0	0.287452	0.615100
     29637.86	0.12274	1788071.0	1341852.0	725652.0	0.287087	0.614735
     29638.37	0.10990	1606934.0	1205499.0	651759.0	0.287434	0.614974
     29638.87	0.12953	1891898.0	1419564.0	768157.0	0.287231	0.614111
     29639.38	0.11965	1747533.0	1311522.0	709599.0	0.287017	0.614244
     29639.88	0.12640	1852463.0	1389650.0	751979.0	0.287464	0.614099
     29640.39	0.11760	1722711.0	1292588.0	699390.0	0.287253	0.614193
     29640.89	0.12398	1812721.0	1360496.0	736117.0	0.286980	0.614216
     29641.40	0.13146	1924932.0	1444536.0	781841.0	0.287102	0.613892
     29641.90	0.11902	1744846.0	1309366.0	708930.0	0.287123	0.613542
     29642.41	0.12442	1821952.0	1367761.0	740759.0	0.286733	0.613255
     29642.91	0.14016	2054035.0	1541949.0	834821.0	0.286759	0.613585
     29643.42	0.13548	1984387.0	1489129.0	806964.0	0.287119	0.612668
     29643.93	0.12396	1802684.0	1353431.0	733107.0	0.286634	0.613106
     29644.43	0.13231	1938245.0	1455122.0	788460.0	0.286693	0.612763
     29644.94	0.11883	1738836.0	1305603.0	707581.0	0.286551	0.612568
     29645.44	0.11782	1726274.0	1296126.0	702733.0	0.286586	0.612158
     29645.95	0.12186	1782042.0	1337886.0	725137.0	0.286669	0.612485
     29646.45	0.13027	1900188.0	1427062.0	773729.0	0.286335	0.612151
     29646.96	0.12374	1812449.0	1360995.0	737976.0	0.286463	0.612060
     29647.46	0.13038	1904071.0	1430045.0	775494.0	0.286288	0.611961
     29647.97	0.12213	1787334.0	1342283.0	727976.0	0.286353	0.611859
     29648.48	0.13553	1979644.0	1486373.0	806236.0	0.286578	0.611718
     29648.98	0.13294	1943206.0	1459315.0	791762.0	0.286372	0.611462
     29649.49	0.11337	1660118.0	1247008.0	676681.0	0.286142	0.611302
     29649.99	0.13280	1943528.0	1459497.0	791913.0	0.286413	0.611396
     29650.50	0.12804	1874255.0	1407892.0	763997.0	0.286118	0.611285
     29651.00	0.13340	1949087.0	1464238.0	794879.0	0.286026	0.610900
     29651.51	0.12484	1817566.0	1365137.0	740932.0	0.286243	0.611101
     29652.02	0.12519	1830232.0	1374334.0	746162.0	0.286473	0.610782
     29652.52	0.15335	2241828.0	1683676.0	914070.0	0.286312	0.610828
     29653.03	0.12029	1760997.0	1323124.0	718080.0	0.285885	0.611170
     29653.53	0.11490	1682326.0	1263817.0	686001.0	0.286041	0.611013
     29654.04	0.12090	1767644.0	1327946.0	721207.0	0.286014	0.610462
     29654.54	0.11489	1681317.0	1263129.0	685913.0	0.285985	0.610596
     29655.05	0.13175	1924564.0	1445873.0	785443.0	0.285986	0.610221
     29655.56	0.13066	1911112.0	1436114.0	780251.0	0.285744	0.610080
     29656.06	0.12533	1828933.0	1374387.0	746744.0	0.285725	0.610041
     29656.57	0.13345	1948413.0	1464149.0	794952.0	0.285741	0.610748
     29657.07	0.13099	1910190.0	1435272.0	779580.0	0.285848	0.610354
     29657.58	0.095769	1396423.0	1049350.0	570247.0	0.285743	0.609857
     29658.09	0.099159	1440827.0	1082615.0	588274.0	0.285838	0.609942
     29658.59	0.11054	1610552.0	1210528.0	657769.0	0.285520	0.609958
     29659.10	0.11849	1724332.0	1295907.0	704459.0	0.285629	0.609536
     29659.60	0.12497	1821519.0	1369194.0	744000.0	0.285449	0.609936
     29660.11	0.12161	1767764.0	1328708.0	722444.0	0.285508	0.609322
     29660.62	0.11416	1664998.0	1251883.0	680622.0	0.285175	0.609397
     29661.12	0.12931	1885371.0	1417328.0	770468.0	0.285351	0.609531
     29661.63	0.11728	1707801.0	1283952.0	697845.0	0.285264	0.609701
     29662.13	0.12707	1852367.0	1392546.0	757113.0	0.285331	0.609376
     29662.64	0.13056	1903297.0	1430845.0	778195.0	0.285322	0.609043
     29663.15	0.12216	1782514.0	1340028.0	728996.0	0.285334	0.608778
     29663.65	0.13417	1959444.0	1473443.0	801332.0	0.285059	0.609082
     29664.16	0.14103	2053715.0	1543909.0	839705.0	0.285333	0.609022
     29664.66	0.14843	2165465.0	1628304.0	885851.0	0.285096	0.608745
     29665.17	0.19547	2853140.0	2145933.0	1167657.0	0.284846	0.608575
     29665.68	0.095827	1399154.0	1052368.0	572333.0	0.284825	0.609077
     29666.18	0.074231	1081938.0	813889.0	442954.0	0.284685	0.608358
     29666.69	0.11226	1636635.0	1230761.0	669758.0	0.285010	0.608472
     29667.19	0.13185	1919448.0	1444037.0	785727.0	0.284595	0.608589
     29667.70	0.14084	2051551.0	1543194.0	839827.0	0.284742	0.608414
     29668.21	0.13226	1922712.0	1446215.0	786987.0	0.284787	0.608493
     29668.71	0.14598	2124430.0	1597986.0	870112.0	0.284759	0.607877
     29669.22	0.14066	2045275.0	1538811.0	837735.0	0.284522	0.608063
     29669.73	0.10632	1536883.0	1155898.0	629228.0	0.284879	0.608139
     29670.23	0.13492	1947483.0	1465252.0	797924.0	0.284511	0.607769
     29670.74	0.12377	1787720.0	1344824.0	732305.0	0.284678	0.607821
     29671.25	0.13856	1999113.0	1504261.0	819228.0	0.284402	0.607695
     29671.75	0.14215	2058361.0	1548969.0	843624.0	0.284320	0.607638
     29672.26	0.12337	1782943.0	1341316.0	730617.0	0.284614	0.607517
     29672.76	0.12628	1827704.0	1375270.0	748945.0	0.284410	0.607740
     29673.27	0.11944	1731573.0	1302807.0	709803.0	0.284509	0.607289
     29673.78	0.13283	1902275.0	1431959.0	780221.0	0.284007	0.607222
     29674.28	0.12528	1801582.0	1355914.0	739084.0	0.284189	0.606819
     29674.79	0.12352	1781670.0	1341013.0	730987.0	0.284126	0.606785
     29675.30	0.11897	1722750.0	1296891.0	706330.0	0.283952	0.607643
     29675.80	0.13696	1983545.0	1493021.0	813958.0	0.284084	0.606648
     29676.31	0.11827	1719824.0	1294393.0	705904.0	0.284180	0.606318
     29676.82	0.11787	1715837.0	1291731.0	704179.0	0.283918	0.606706
     29677.32	0.13297	1935168.0	1456709.0	794156.0	0.284014	0.606655
     29677.83	0.11967	1743739.0	1312687.0	716045.0	0.283955	0.606088
     29678.34	0.12215	1778453.0	1338801.0	729993.0	0.283969	0.606495
     29678.84	0.11576	1684390.0	1268443.0	691715.0	0.283613	0.606371
     29679.35	0.11717	1707681.0	1285637.0	701233.0	0.283882	0.606169
     29679.86	0.12901	1876996.0	1413093.0	771021.0	0.283892	0.605821
     29680.36	0.12761	1852451.0	1394948.0	761179.0	0.283652	0.605744
     29680.87	0.11442	1666169.0	1255016.0	684947.0	0.283379	0.605562
     29681.38	0.12008	1746297.0	1314735.0	717677.0	0.283862	0.605371
     29681.88	0.12621	1833442.0	1380769.0	753712.0	0.283554	0.605386
     29682.39	0.13285	1935210.0	1457859.0	795824.0	0.283247	0.605346
     29682.90	0.12050	1754530.0	1321575.0	721539.0	0.283377	0.605193
     29683.40	0.13846	2015266.0	1518199.0	828864.0	0.283226	0.605224
     29683.91	0.13048	1892686.0	1425573.0	778419.0	0.283423	0.605064
     29684.42	0.12586	1828083.0	1376836.0	751668.0	0.283480	0.605249
     29684.92	0.12201	1775483.0	1337239.0	730181.0	0.283465	0.605070
     29685.43	0.13035	1892469.0	1425618.0	778335.0	0.283277	0.605204
     29685.94	0.12210	1774487.0	1336724.0	730096.0	0.283290	0.604801
     29686.44	0.12539	1821761.0	1372606.0	750121.0	0.283092	0.604232
     29686.95	0.12287	1788327.0	1347203.0	736107.0	0.283250	0.604410
     29687.46	0.12553	1824902.0	1374785.0	751628.0	0.283229	0.603811
     29687.97	0.12437	1807236.0	1361640.0	744262.0	0.283109	0.604052
     29688.47	0.12422	1803897.0	1359133.0	742709.0	0.283102	0.604298
     29688.98	0.13114	1903749.0	1433929.0	783843.0	0.283407	0.603965
     29689.49	0.13320	1938586.0	1460610.0	798698.0	0.283105	0.603627
     29689.99	0.12427	1807465.0	1362055.0	744823.0	0.282931	0.603603
     29690.50	0.13382	1945250.0	1465833.0	801758.0	0.282967	0.603372
     29691.01	0.12895	1874698.0	1412538.0	772766.0	0.283059	0.603167
     29691.51	0.12525	1818312.0	1370164.0	749675.0	0.282978	0.603046
     29692.02	0.12811	1858748.0	1401286.0	766199.0	0.282513	0.603704
     29692.53	0.13332	1934433.0	1457862.0	797858.0	0.282843	0.602796
     29693.04	0.11891	1726322.0	1301184.0	711949.0	0.282719	0.603024
     29693.54	0.12589	1829939.0	1379009.0	754245.0	0.282918	0.603403
     29694.05	0.12505	1813666.0	1367072.0	747846.0	0.282679	0.603229
     29694.56	0.12910	1868689.0	1408330.0	770813.0	0.282833	0.602714
     29695.06	0.12231	1775225.0	1338109.0	732464.0	0.282670	0.602599
     29695.57	0.12225	1774555.0	1337985.0	732345.0	0.282385	0.602668
     29696.08	0.11701	1693417.0	1276712.0	699304.0	0.282460	0.601958
     29696.59	0.12033	1748811.0	1318199.0	721933.0	0.282670	0.602089
     29697.09	0.11213	1628163.0	1227316.0	672151.0	0.282623	0.602102
     29697.60	0.11607	1684240.0	1269843.0	695454.0	0.282421	0.602084
     29698.11	0.12174	1766414.0	1331538.0	729640.0	0.282617	0.601539
     29698.62	0.10924	1581235.0	1192026.0	653067.0	0.282552	0.601730
     29699.12	0.11569	1676713.0	1264341.0	692939.0	0.282284	0.601364
     29699.63	0.12073	1753218.0	1321998.0	724452.0	0.282309	0.601484
     29700.14	0.11609	1682283.0	1268469.0	695359.0	0.282341	0.601138
     29700.65	0.12160	1761820.0	1328396.0	728269.0	0.282375	0.601057
     29701.15	0.12442	1802542.0	1359025.0	745177.0	0.282430	0.600901
     29701.66	0.11610	1684791.0	1270849.0	696821.0	0.281956	0.600912
     29702.17	0.12835	1861002.0	1403493.0	769604.0	0.282151	0.600843
     29702.67	0.13680	1980454.0	1493367.0	819021.0	0.282293	0.600679
     29703.18	0.13365	1938453.0	1461797.0	802158.0	0.282224	0.600116
     29703.69	0.13310	1930241.0	1455430.0	798482.0	0.282343	0.600344
     29704.20	0.11692	1687258.0	1272436.0	698454.0	0.282172	0.599819
     29704.70	0.13886	2011263.0	1517196.0	832679.0	0.281899	0.599971
     29705.21	0.11689	1692546.0	1276519.0	700582.0	0.282097	0.599981
     29705.72	0.12808	1853758.0	1398282.0	767460.0	0.281971	0.599913
     29706.23	0.13311	1930293.0	1456343.0	799410.0	0.281743	0.599810
     29706.74	0.12596	1823943.0	1375784.0	755492.0	0.281977	0.599410
     29707.24	0.13662	1978248.0	1492128.0	819596.0	0.282008	0.599147
     29707.75	0.13358	1934601.0	1459206.0	801212.0	0.282009	0.599522
     29708.26	0.11954	1733112.0	1307454.0	718152.0	0.281837	0.599156
     29708.77	0.13053	1887940.0	1424130.0	782491.0	0.281925	0.598834
     29709.27	0.13430	1943517.0	1466076.0	805532.0	0.281910	0.598842
     29709.78	0.14110	2043289.0	1541562.0	847272.0	0.281765	0.598530
     29710.29	0.13420	1944208.0	1466850.0	805874.0	0.281737	0.598945
     29710.80	0.13899	2011882.0	1518014.0	834513.0	0.281668	0.598310
     29711.30	0.12773	1846862.0	1393411.0	766262.0	0.281733	0.597986
     29711.81	0.12642	1821732.0	1374453.0	755848.0	0.281732	0.597971
     29712.32	0.13006	1882208.0	1419809.0	781089.0	0.281923	0.597589
     29712.83	0.13213	1905045.0	1437555.0	790787.0	0.281562	0.597670
     29713.34	0.11734	1697160.0	1280692.0	704651.0	0.281556	0.597453
     29713.84	0.13501	1954169.0	1474716.0	811354.0	0.281500	0.597516
     29714.35	0.12387	1794782.0	1354307.0	745131.0	0.281594	0.597485
     29714.86	0.12729	1841008.0	1389326.0	764614.0	0.281495	0.597203
     29715.37	0.11968	1725467.0	1302465.0	716937.0	0.281239	0.597026
     29715.88	0.13067	1889657.0	1425960.0	785168.0	0.281550	0.596703
     29716.38	0.11934	1721631.0	1299334.0	715669.0	0.281420	0.596389
     29716.89	0.12161	1757849.0	1326614.0	730749.0	0.281461	0.596315
     29717.40	0.12642	1827231.0	1378885.0	759496.0	0.281527	0.596375
     29717.91	0.12723	1840005.0	1388751.0	765243.0	0.281364	0.595967
     29718.41	0.12710	1837938.0	1387166.0	764551.0	0.281381	0.595729
     29718.92	0.11130	1604029.0	1210867.0	667313.0	0.281182	0.595833
     29719.43	0.11984	1730653.0	1306438.0	719796.0	0.281194	0.596092
     29719.94	0.12410	1793562.0	1353407.0	746257.0	0.281578	0.595310
     29720.45	0.12282	1776047.0	1340835.0	739172.0	0.281098	0.595517
     29720.96	0.11940	1722598.0	1300575.0	716608.0	0.281027	0.596033
     29721.46	0.12212	1765431.0	1332627.0	734825.0	0.281243	0.595275
     29721.97	0.11953	1726120.0	1303195.0	718690.0	0.281057	0.595144
     29722.48	0.13576	1959050.0	1479047.0	816062.0	0.281062	0.594663
     29722.99	0.13265	1913382.0	1444717.0	797241.0	0.280959	0.594512
     29723.50	0.13690	1975397.0	1491470.0	823207.0	0.281007	0.594310
     29724.00	0.13501	1945829.0	1469305.0	810824.0	0.280899	0.594494
     29724.51	0.12017	1733652.0	1309132.0	723089.0	0.280866	0.593587
     29725.02	0.12812	1850607.0	1397196.0	771749.0	0.281046	0.593563
     29725.53	0.11960	1725209.0	1303003.0	719534.0	0.280677	0.593823
     29726.04	0.11530	1660958.0	1254590.0	693029.0	0.280586	0.593492
     29726.55	0.12815	1849864.0	1397205.0	771465.0	0.280638	0.593938
     29727.05	0.12581	1817693.0	1372778.0	758204.0	0.280732	0.593639
     29727.56	0.13025	1878917.0	1418853.0	783913.0	0.280847	0.593306
     29728.07	0.13127	1895045.0	1431094.0	791226.0	0.280803	0.592611
     29728.58	0.13180	1900643.0	1435687.0	793377.0	0.280549	0.593100
     29729.09	0.11308	1629097.0	1230911.0	680679.0	0.280271	0.592419
     29729.60	0.12841	1852759.0	1399595.0	773765.0	0.280493	0.592670
     29730.10	0.12531	1809593.0	1367017.0	755834.0	0.280471	0.592564
     29730.61	0.13370	1926659.0	1455169.0	804692.0	0.280665	0.592418
     29731.12	0.13026	1875721.0	1416897.0	783538.0	0.280524	0.592405
     29731.63	0.12935	1867527.0	1410936.0	780131.0	0.280362	0.592547
     29732.14	0.12958	1864004.0	1408425.0	778949.0	0.280255	0.592282
     29732.65	0.18635	2676515.0	2022804.0	1119125.0	0.280031	0.591938
     29733.15	0.15138	2184163.0	1650318.0	913139.0	0.280265	0.591835
     29733.66	0.065492	946141.0	714746.0	395429.0	0.280464	0.591956
     29734.17	0.098771	1424717.0	1076514.0	595795.0	0.280245	0.591587
     29734.68	0.12221	1761290.0	1331017.0	736993.0	0.280103	0.591120
     29735.19	0.12422	1790338.0	1352970.0	749145.0	0.280102	0.591125
     29735.70	0.11783	1693301.0	1279704.0	708580.0	0.280051	0.591121
     29736.21	0.13771	1976946.0	1493944.0	826970.0	0.280134	0.591406
     29736.71	0.15959	2288174.0	1729586.0	958209.0	0.279872	0.590571
     29737.22	0.14930	2150494.0	1624941.0	900343.0	0.280226	0.590451
     29737.73	0.066375	954652.0	721843.0	400132.0	0.279539	0.590013
     29738.24	0.091638	1314857.0	993682.0	550702.0	0.280066	0.590223
     29738.75	0.10782	1551807.0	1172808.0	650031.0	0.280019	0.590136
     29739.26	0.11678	1678672.0	1268974.0	703379.0	0.279794	0.590068
     29739.77	0.12864	1841795.0	1392094.0	772040.0	0.279932	0.589528
     29740.28	0.14769	2121568.0	1604076.0	889150.0	0.279608	0.590037
     29740.78	0.13819	1985798.0	1501351.0	832620.0	0.279655	0.589543
     29741.29	0.10831	1551923.0	1173341.0	650683.0	0.279640	0.589588
     29741.80	0.072139	1038421.0	784985.0	435477.0	0.279792	0.589223
     29742.31	0.13714	1971682.0	1490469.0	827147.0	0.279796	0.588864
     29742.82	0.11664	1678025.0	1268967.0	704039.0	0.279414	0.589125
     29743.33	0.12808	1843315.0	1393773.0	773529.0	0.279551	0.588807
     29743.84	0.14211	2047861.0	1548715.0	859781.0	0.279370	0.588503
     29744.35	0.13156	1895267.0	1433663.0	795593.0	0.279127	0.588900
     29744.86	0.13067	1883780.0	1424740.0	790957.0	0.279291	0.588501
     29745.36	0.13457	1935827.0	1464046.0	812981.0	0.279331	0.588251
     29745.87	0.11185	1609403.0	1217557.0	675886.0	0.279017	0.588577
     29746.38	0.12254	1763830.0	1334381.0	740845.0	0.279020	0.588431
     29746.89	0.13763	1975956.0	1494626.0	829983.0	0.279176	0.588226
     29747.40	0.12592	1796546.0	1359180.0	754975.0	0.278984	0.587952
     29747.91	0.13574	1953682.0	1477719.0	821391.0	0.279216	0.587256
     29748.42	0.21411	3081710.0	2330868.0	1295004.0	0.279244	0.587727
     29748.93	0.10262	1476482.0	1117167.0	620907.0	0.278866	0.587370
     29749.44	0.091079	1308749.0	990451.0	550168.0	0.278667	0.587937
     29749.95	0.11205	1604582.0	1214622.0	675043.0	0.278430	0.587412
     29750.45	0.13826	1991367.0	1506678.0	837337.0	0.278914	0.587436
     29750.96	0.13698	1965480.0	1487333.0	827430.0	0.278752	0.586415
     29751.47	0.13425	1925856.0	1457595.0	810397.0	0.278583	0.587019
     29751.98	0.12623	1809495.0	1369645.0	761496.0	0.278496	0.587022
     29752.49	0.15767	2265772.0	1714897.0	953754.0	0.278563	0.586703
     29753.00	0.12102	1737645.0	1315134.0	731268.0	0.278592	0.586914
     29753.51	0.10673	1537125.0	1163283.0	647243.0	0.278668	0.586280
     29754.02	0.12574	1785074.0	1351315.0	751634.0	0.278382	0.586584
     29754.53	0.12275	1756708.0	1329526.0	739707.0	0.278619	0.586324
     29755.04	0.12187	1746104.0	1321709.0	735278.0	0.278461	0.586432
     29755.55	0.12520	1785006.0	1351504.0	751978.0	0.278204	0.586266
     29756.06	0.12418	1779957.0	1347098.0	749738.0	0.278637	0.585984
     29756.57	0.13841	1974967.0	1495593.0	832400.0	0.278029	0.585965
     29757.07	0.12989	1865179.0	1412183.0	786165.0	0.278220	0.585725
     29757.58	0.10565	1512768.0	1145220.0	637714.0	0.278344	0.585462
     29758.09	0.12550	1793741.0	1357934.0	755986.0	0.278339	0.585697
     29758.60	0.12625	1792405.0	1357298.0	755818.0	0.278062	0.585451
     29759.11	0.12120	1731765.0	1311542.0	730319.0	0.277938	0.585477
     29759.62	0.12363	1771990.0	1342047.0	747302.0	0.277907	0.585482
     29760.13	0.11516	1645509.0	1246115.0	694064.0	0.278019	0.585222
     29760.64	0.12587	1796401.0	1360844.0	758243.0	0.277680	0.584856
     29761.15	0.12355	1772843.0	1342924.0	748145.0	0.277735	0.585008
     29761.66	0.10988	1572064.0	1190540.0	663289.0	0.277982	0.584951
     29762.17	0.12672	1819118.0	1378060.0	768006.0	0.277675	0.584634
     29762.68	0.13566	1945069.0	1473269.0	821057.0	0.277814	0.584646
     29763.19	0.12664	1813468.0	1373857.0	765732.0	0.277619	0.584545
     29763.70	0.13299	1888107.0	1430398.0	797092.0	0.277622	0.584738
     29764.21	0.12867	1829814.0	1386611.0	773119.0	0.277352	0.584185
     29764.72	0.13359	1907980.0	1445699.0	806234.0	0.277452	0.583974
     29765.23	0.12118	1734319.0	1314056.0	732868.0	0.277496	0.583908
     29765.74	0.12260	1754137.0	1329322.0	741146.0	0.277308	0.584227
     29766.25	0.12332	1755505.0	1330284.0	742281.0	0.277364	0.583420
     29766.76	0.12047	1711202.0	1296762.0	723392.0	0.277326	0.583674
     29767.26	0.12407	1772136.0	1342977.0	748904.0	0.277297	0.584033
     29767.77	0.13255	1887210.0	1430287.0	797789.0	0.277224	0.583786
     29768.28	0.11676	1670291.0	1265923.0	706207.0	0.277196	0.583648
     29768.79	0.13081	1863294.0	1412320.0	787955.0	0.277112	0.583548
     29769.30	0.12921	1842519.0	1396285.0	779170.0	0.277319	0.583341
     29769.81	0.12254	1749764.0	1326159.0	740191.0	0.277194	0.583134
     29770.32	0.14538	2072510.0	1570836.0	876619.0	0.277152	0.583291
     29770.83	0.12366	1760904.0	1334471.0	744700.0	0.277292	0.583309
     29771.34	0.12902	1840295.0	1394924.0	778563.0	0.277086	0.583145
     29771.85	0.12490	1776578.0	1346433.0	751290.0	0.277230	0.583422
     29772.36	0.12542	1778249.0	1347815.0	752492.0	0.277144	0.582850
     29772.87	0.13397	1905820.0	1444808.0	806769.0	0.276936	0.582694
     29773.38	0.12666	1806182.0	1369082.0	764796.0	0.277075	0.582287
     29773.89	0.12153	1732733.0	1313662.0	733257.0	0.276881	0.583078
     29774.40	0.13025	1855770.0	1406911.0	785549.0	0.276903	0.582769
     29774.91	0.11807	1680850.0	1274307.0	711825.0	0.276897	0.582326
     29775.42	0.12499	1775685.0	1346225.0	752065.0	0.276882	0.582237
     29775.93	0.13080	1868988.0	1416998.0	791536.0	0.276857	0.582320
     29776.44	0.11158	1592445.0	1207496.0	674862.0	0.276722	0.581796
     29776.95	0.11180	1586503.0	1203256.0	672497.0	0.276501	0.581789
     29777.46	0.12443	1776333.0	1347080.0	752611.0	0.276612	0.582146
     29777.97	0.10749	1533253.0	1163145.0	650163.0	0.276264	0.581660
     29778.48	0.11631	1655023.0	1255338.0	701559.0	0.276410	0.581855
     29778.99	0.11800	1680381.0	1274881.0	712550.0	0.276168	0.581758
     29779.50	0.12150	1731810.0	1313828.0	734296.0	0.276222	0.581788
     29780.01	0.12100	1724376.0	1307951.0	730961.0	0.276403	0.581857
     29780.52	0.12473	1780958.0	1350891.0	755312.0	0.276387	0.581389
     29781.03	0.11204	1601804.0	1215098.0	679026.0	0.276306	0.581921
     29781.54	0.11595	1653288.0	1254333.0	701689.0	0.276162	0.580869
     29782.05	0.11968	1705312.0	1293726.0	723146.0	0.276222	0.581671
     29782.56	0.12735	1821433.0	1381996.0	772780.0	0.276095	0.581290
     29783.07	0.13831	1976152.0	1499218.0	838752.0	0.276208	0.580784
     29783.58	0.13469	1923913.0	1459746.0	816153.0	0.276099	0.581416
     29784.09	0.14230	2022367.0	1534553.0	858387.0	0.276029	0.580939
     29784.60	0.11264	1605935.0	1218557.0	681535.0	0.276039	0.581075
     29785.12	0.12806	1824750.0	1384747.0	774571.0	0.275926	0.580963
     29785.63	0.12537	1787511.0	1356641.0	759184.0	0.275812	0.580523
     29786.14	0.13688	1944646.0	1476103.0	825817.0	0.275674	0.580788
     29786.65	0.12641	1801791.0	1367195.0	764997.0	0.276020	0.580645
     29787.16	0.13321	1893017.0	1436094.0	803872.0	0.276245	0.580242
     29787.67	0.12580	1783156.0	1353334.0	757281.0	0.275814	0.580592
     29788.18	0.12953	1846914.0	1401286.0	784541.0	0.276126	0.580047
     29788.69	0.13331	1900208.0	1442349.0	807565.0	0.275690	0.580005
     29789.20	0.13817	1957359.0	1485622.0	831424.0	0.275763	0.580449
     29789.71	0.13035	1844194.0	1399804.0	783852.0	0.275710	0.579867
     29790.22	0.13809	1952464.0	1482179.0	829920.0	0.275579	0.579939
     29790.73	0.13566	1924246.0	1460828.0	818200.0	0.275531	0.579652
     29791.24	0.13351	1887799.0	1433486.0	802709.0	0.275302	0.579872
     29791.75	0.12589	1783114.0	1353459.0	758136.0	0.275698	0.579556
     29792.26	0.12855	1825533.0	1385662.0	776154.0	0.275694	0.579582
     29792.77	0.12986	1846496.0	1401470.0	785409.0	0.275768	0.579072
     29793.28	0.12409	1762538.0	1338192.0	749852.0	0.275435	0.579199
     29793.79	0.12527	1778576.0	1350373.0	756652.0	0.275432	0.579233
     29794.30	0.13204	1875251.0	1423837.0	797853.0	0.275387	0.579186
     29794.81	0.12874	1824790.0	1385529.0	776442.0	0.275383	0.579115
     29795.32	0.12040	1710901.0	1299050.0	727952.0	0.275387	0.579153
     29795.84	0.12665	1786213.0	1356294.0	760296.0	0.275342	0.578803
     29796.35	0.12308	1748892.0	1328127.0	744499.0	0.275213	0.578813
     29796.86	0.12748	1810617.0	1375082.0	771044.0	0.275154	0.578523
     29797.37	0.11444	1628919.0	1236796.0	693450.0	0.275392	0.578600
     29797.88	0.12377	1755173.0	1333146.0	747536.0	0.275026	0.578514
     29798.39	0.12493	1778123.0	1350382.0	757371.0	0.275171	0.578290
     29798.90	0.12444	1770582.0	1344748.0	754210.0	0.275102	0.578291
     29799.41	0.11636	1655238.0	1257094.0	704729.0	0.275142	0.578745
     29799.92	0.12567	1783487.0	1354783.0	759925.0	0.274929	0.578177
     29800.43	0.10620	1502834.0	1141716.0	640621.0	0.274820	0.577850
     29800.94	0.12429	1761460.0	1338626.0	750832.0	0.274499	0.578217
     29801.45	0.12583	1781244.0	1353009.0	759285.0	0.274981	0.577709
     29801.97	0.12482	1769851.0	1344322.0	754500.0	0.275006	0.577590
     29802.48	0.12865	1820617.0	1383245.0	776309.0	0.274743	0.577637
     29802.99	0.13119	1850888.0	1406113.0	789239.0	0.274836	0.577515
     29803.50	0.11446	1613418.0	1225702.0	688036.0	0.274841	0.577428
     29804.01	0.14709	2072561.0	1574716.0	883914.0	0.274710	0.577470
     29804.52	0.12129	1707169.0	1297113.0	728099.0	0.274695	0.577459
     29805.03	0.13571	1925029.0	1462745.0	821198.0	0.274626	0.577306
     29805.54	0.12018	1693044.0	1286410.0	722527.0	0.274673	0.576856
     29806.05	0.12363	1747752.0	1328132.0	745882.0	0.274557	0.576961
     29806.56	0.12274	1738940.0	1320746.0	741949.0	0.275079	0.576671
     29807.07	0.12435	1758447.0	1336277.0	750686.0	0.274544	0.576655
     29807.59	0.12815	1806887.0	1373651.0	771705.0	0.274133	0.576625
     29808.10	0.22455	3176451.0	2413939.0	1356243.0	0.274505	0.576541
     29808.61	0.082267	1162104.0	883370.0	496376.0	0.274243	0.576410
     29809.12	0.079865	1133585.0	861759.0	484462.0	0.274165	0.575937
     29809.63	0.11887	1682080.0	1278400.0	718646.0	0.274422	0.575996
     29810.14	0.12205	1727941.0	1313287.0	738026.0	0.274397	0.576309
     29810.65	0.14874	2094611.0	1592112.0	895304.0	0.274306	0.575653
     29811.16	0.14960	2113934.0	1607228.0	903675.0	0.274040	0.575796
     29811.68	0.097321	1378095.0	1047788.0	589093.0	0.274021	0.575852
     29812.19	0.13835	1953808.0	1485165.0	835487.0	0.274254	0.575266
     29812.70	0.11618	1637997.0	1245266.0	700347.0	0.274125	0.575529
     29813.21	0.11758	1660496.0	1262510.0	709973.0	0.274015	0.575630
     29813.72	0.12600	1780091.0	1353589.0	761634.0	0.273905	0.575049
     29814.23	0.12456	1756890.0	1335774.0	751554.0	0.274034	0.575123
     29814.74	0.12755	1799204.0	1367682.0	769752.0	0.274227	0.574804
     29815.25	0.14553	2066034.0	1570541.0	883709.0	0.274211	0.575048
     29815.77	0.10137	1430496.0	1087588.0	612095.0	0.274059	0.574830
     29816.28	0.15143	2152701.0	1636954.0	921423.0	0.273886	0.574673
     29816.79	0.092595	1310423.0	996631.0	561314.0	0.273725	0.574100
     29817.30	0.11385	1613176.0	1227056.0	690948.0	0.273587	0.574309
     29817.81	0.10948	1533416.0	1166031.0	656482.0	0.273892	0.574466
     29818.32	0.12164	1709608.0	1300150.0	732183.0	0.273784	0.574204
     29818.83	0.11627	1641952.0	1248618.0	703393.0	0.273848	0.573877
     29819.35	0.13195	1864730.0	1418378.0	798954.0	0.273602	0.573966
     29819.86	0.11639	1639364.0	1246919.0	702468.0	0.273633	0.573831
     29820.37	0.13093	1843573.0	1401891.0	790077.0	0.273883	0.573447
     29820.88	0.10099	1428659.0	1086547.0	612661.0	0.273731	0.572948
     29821.39	0.11623	1637033.0	1245216.0	701943.0	0.273576	0.573212
     29821.90	0.12130	1717881.0	1306903.0	736645.0	0.273431	0.573309
     29822.42	0.13012	1840597.0	1400352.0	789397.0	0.273366	0.573210
     29822.93	0.13379	1879227.0	1429878.0	806052.0	0.273271	0.573196
     29823.44	0.13803	1948251.0	1482237.0	835806.0	0.273380	0.572911
     29823.95	0.17171	2409200.0	1832651.0	1033570.0	0.273531	0.572745
     29824.46	0.10159	1424247.0	1083635.0	611338.0	0.273322	0.572426
     29824.97	0.098913	1392479.0	1059327.0	597670.0	0.273452	0.572350
     29825.49	0.12974	1828221.0	1390900.0	784646.0	0.273392	0.572474
     29826.00	0.14237	1993230.0	1516676.0	855931.0	0.273235	0.572087
     29826.51	0.12670	1785576.0	1358579.0	766801.0	0.273302	0.571967
     29827.02	0.11608	1631336.0	1241599.0	700709.0	0.272999	0.572063
     29827.53	0.13846	1940671.0	1476366.0	833281.0	0.273450	0.571968
     29828.04	0.14752	2067613.0	1573516.0	888161.0	0.273082	0.571915
     29828.56	0.10711	1494711.0	1137779.0	642395.0	0.272855	0.571630
     29829.07	0.13775	1940284.0	1476823.0	833971.0	0.272941	0.571450
     29829.58	0.13106	1845103.0	1403778.0	793028.0	0.273368	0.571064
     29830.09	0.12874	1813330.0	1380130.0	779247.0	0.272987	0.571605
     29830.60	0.13748	1939266.0	1476000.0	833664.0	0.272974	0.571261
     29831.11	0.13213	1855588.0	1412138.0	797816.0	0.273097	0.570982
     29831.63	0.14611	2041977.0	1554197.0	878222.0	0.272959	0.570815
     29832.14	0.12954	1814141.0	1380919.0	780406.0	0.272863	0.570690
     29832.65	0.13251	1848886.0	1407307.0	795510.0	0.272905	0.570450
     29833.16	0.12166	1714736.0	1305284.0	737720.0	0.272838	0.570612
     29833.67	0.12067	1700373.0	1294450.0	731849.0	0.272762	0.570267
     29834.19	0.12723	1774342.0	1351180.0	763837.0	0.272451	0.570379
     29834.70	0.13307	1875645.0	1428092.0	807519.0	0.272613	0.570128
     29835.21	0.12084	1695615.0	1291056.0	730215.0	0.272585	0.569877
     29835.72	0.12426	1751753.0	1334118.0	754737.0	0.272347	0.569656
     29836.23	0.12958	1809369.0	1377605.0	779289.0	0.272632	0.569720
     29836.75	0.11866	1668381.0	1270200.0	718397.0	0.272679	0.569907
     29837.26	0.12727	1785641.0	1360195.0	769472.0	0.272149	0.569679
     29837.77	0.12337	1733205.0	1319979.0	746809.0	0.272356	0.569562
     29838.28	0.13142	1839261.0	1400516.0	792586.0	0.272523	0.569295
     29838.80	0.11327	1587893.0	1209380.0	684247.0	0.272300	0.569544
     29839.31	0.12519	1745078.0	1329361.0	752179.0	0.272101	0.569479
     29839.82	0.11693	1650115.0	1256371.0	711177.0	0.272618	0.569061
     29840.33	0.13692	1933519.0	1472743.0	833814.0	0.272215	0.568872
     29840.84	0.10690	1503848.0	1145364.0	648603.0	0.272305	0.568657
     29841.36	0.11795	1649342.0	1256555.0	711821.0	0.272003	0.568303
     29841.87	0.12170	1711584.0	1303748.0	738683.0	0.272176	0.568130
     29842.38	0.12506	1755138.0	1337240.0	757273.0	0.271940	0.568639
     29842.89	0.13193	1858277.0	1415827.0	802213.0	0.271936	0.568095
     29843.41	0.12769	1803464.0	1374213.0	778713.0	0.271828	0.567994
     29843.92	0.12567	1771076.0	1349496.0	764537.0	0.271856	0.568216
     29844.43	0.13085	1841247.0	1402757.0	795131.0	0.272003	0.567688
     29844.94	0.12655	1780326.0	1356516.0	768876.0	0.271877	0.567745
     29845.46	0.12280	1733687.0	1320870.0	748687.0	0.271960	0.567725
     29845.97	0.12520	1754353.0	1336858.0	757762.0	0.271778	0.567708
     29846.48	0.12672	1784622.0	1359749.0	771121.0	0.271907	0.567210
     29846.99	0.12609	1777042.0	1354021.0	767966.0	0.271872	0.567089
     29847.50	0.12787	1785928.0	1361567.0	772202.0	0.271302	0.567145
     29848.02	0.12236	1709984.0	1303037.0	738778.0	0.271786	0.567456
     29848.53	0.12501	1757309.0	1339197.0	759713.0	0.271713	0.566885
     29849.04	0.12461	1753497.0	1336422.0	758302.0	0.271616	0.566669
     29849.56	0.12322	1733486.0	1321342.0	749814.0	0.271487	0.566578
     29850.07	0.13255	1853790.0	1412983.0	802008.0	0.271529	0.566340
     29850.58	0.12163	1709781.0	1303333.0	739394.0	0.271440	0.566849
     29851.09	0.13074	1843615.0	1405316.0	797629.0	0.271466	0.566374
     29851.61	0.13827	1946260.0	1483573.0	842360.0	0.271456	0.566001
     29852.12	0.12300	1738808.0	1325781.0	752940.0	0.271198	0.565771
     29852.63	0.13062	1834933.0	1399015.0	794396.0	0.271240	0.565942
     29853.14	0.12613	1775325.0	1353330.0	768766.0	0.271415	0.565537
     29853.66	0.13227	1864828.0	1421658.0	807620.0	0.271345	0.565487
     29854.17	0.12337	1737204.0	1324562.0	752630.0	0.271195	0.565263
     29854.68	0.12515	1765426.0	1345994.0	764886.0	0.271259	0.565161
     29855.19	0.12294	1722008.0	1313138.0	745863.0	0.271071	0.565633
     29855.71	0.12558	1761644.0	1343119.0	763186.0	0.271253	0.565248
     29856.22	0.13019	1836790.0	1400746.0	796197.0	0.271015	0.564914
     29856.73	0.11734	1648527.0	1257207.0	714617.0	0.270990	0.564901
     29857.25	0.11490	1610773.0	1228562.0	698165.0	0.270870	0.565144
     29857.76	0.12318	1740258.0	1326862.0	754519.0	0.271217	0.564492
     29858.27	0.12481	1755715.0	1338763.0	761077.0	0.271130	0.564767
     29858.78	0.11538	1617591.0	1234243.0	701911.0	0.270480	0.564406
     29859.30	0.10960	1533591.0	1169843.0	665196.0	0.270742	0.564543
     29859.81	0.12614	1774789.0	1353571.0	770039.0	0.270935	0.564060
     29860.32	0.13084	1843092.0	1406043.0	799691.0	0.270665	0.564309
     29860.84	0.11583	1633174.0	1245800.0	708782.0	0.270747	0.563985
     29861.35	0.10124	1415293.0	1079527.0	614250.0	0.270814	0.563876
     29861.86	0.11969	1681847.0	1283072.0	730054.0	0.270635	0.563894
     29862.37	0.10956	1544783.0	1178503.0	670543.0	0.270638	0.563912
     29862.89	0.13881	1956679.0	1492730.0	849762.0	0.270642	0.563406
     29863.40	0.11649	1635967.0	1248221.0	710321.0	0.270515	0.563758
     29863.91	0.13733	1925657.0	1469633.0	836579.0	0.270254	0.563447
     29864.43	0.13120	1829761.0	1396009.0	794941.0	0.270568	0.563105
     29864.94	0.13049	1836051.0	1400788.0	797733.0	0.270582	0.563016
     29865.45	0.12313	1727153.0	1317677.0	750346.0	0.270604	0.563091
     29865.97	0.12724	1784417.0	1361937.0	776179.0	0.270184	0.562280
     29866.48	0.14122	1978513.0	1509372.0	859891.0	0.270652	0.562643
     29866.99	0.12696	1784780.0	1362185.0	775910.0	0.270205	0.562809
     29867.50	0.11452	1612229.0	1230504.0	701142.0	0.270194	0.562469
     29868.02	0.13294	1854313.0	1414988.0	806395.0	0.270393	0.562303
     29868.53	0.12882	1803215.0	1376075.0	784077.0	0.270336	0.562483
     29869.04	0.13940	1945841.0	1485273.0	846293.0	0.270096	0.562488
     29869.56	0.12377	1713952.0	1308258.0	745631.0	0.270105	0.562221
     29870.07	0.14412	2000807.0	1527295.0	870646.0	0.270052	0.562018
     29870.58	0.11562	1605967.0	1225665.0	699036.0	0.270243	0.561537
     29871.10	0.13977	1946155.0	1485698.0	847060.0	0.269971	0.561868
     29871.61	0.13008	1822731.0	1391454.0	793404.0	0.269987	0.561772
     29872.12	0.14176	1991393.0	1520238.0	866895.0	0.269967	0.561704
     29872.64	0.13683	1920540.0	1466092.0	836163.0	0.270006	0.561532
     29873.15	0.12743	1781347.0	1359938.0	775854.0	0.269931	0.561230
     29873.66	0.12797	1790140.0	1366884.0	779729.0	0.269760	0.561343
     29874.18	0.13274	1842404.0	1406918.0	802804.0	0.269670	0.561046
     29874.69	0.11939	1660899.0	1268104.0	723841.0	0.269836	0.560706
     29875.20	0.13182	1832770.0	1399816.0	798630.0	0.269488	0.561198
     29875.72	0.12661	1738469.0	1327449.0	757797.0	0.269746	0.560599
     29876.23	0.12905	1782289.0	1361077.0	776745.0	0.269622	0.560919
     29876.74	0.12058	1674471.0	1278867.0	729970.0	0.269523	0.560726
     29877.26	0.12429	1728307.0	1319700.0	753778.0	0.269738	0.560062
     29877.77	0.12343	1728836.0	1320563.0	754079.0	0.269390	0.560316
     29878.29	0.12857	1798761.0	1373521.0	784666.0	0.269721	0.559875
     29878.80	0.12516	1751969.0	1337947.0	764082.0	0.269604	0.560217
     29879.31	0.12191	1691728.0	1292072.0	737829.0	0.269503	0.560290
     29879.83	0.11857	1633696.0	1247777.0	712462.0	0.269481	0.560392
     29880.34	0.13049	1785661.0	1364355.0	779856.0	0.269107	0.559328
     29880.85	0.12833	1772863.0	1354306.0	773859.0	0.269307	0.559655
     29881.37	0.11006	1533764.0	1171737.0	669557.0	0.269238	0.559626
     29881.88	0.11741	1636247.0	1250305.0	714675.0	0.269018	0.559315
     29882.39	0.12424	1736526.0	1326449.0	757923.0	0.269381	0.559679
     29882.91	0.12056	1686657.0	1288401.0	736608.0	0.269347	0.559101
     29883.42	0.11828	1658604.0	1267320.0	724327.0	0.269072	0.559417
     29883.94	0.12980	1820867.0	1391108.0	794965.0	0.269212	0.559558
     29884.45	0.12265	1717608.0	1312316.0	750204.0	0.269139	0.559204
     29884.96	0.13612	1912155.0	1460971.0	835047.0	0.269130	0.559369
     29885.48	0.13146	1846851.0	1410953.0	806971.0	0.269217	0.558733
     29885.99	0.12911	1812508.0	1384866.0	791980.0	0.269108	0.558823
     29886.50	0.12683	1773677.0	1355688.0	775211.0	0.268746	0.558929
     29887.02	0.12861	1800535.0	1375656.0	786783.0	0.269153	0.558734
     29887.53	0.12037	1678819.0	1283204.0	734041.0	0.268730	0.558550
     29888.05	0.12791	1794427.0	1371188.0	784517.0	0.269008	0.558365
     29888.56	0.11653	1636417.0	1250576.0	715400.0	0.268905	0.558518
     29889.07	0.12709	1784553.0	1363600.0	780121.0	0.269040	0.558435
     29889.59	0.12535	1759003.0	1344270.0	769287.0	0.268896	0.558142
     29890.10	0.13003	1821711.0	1392501.0	796968.0	0.268675	0.558042
     29890.62	0.11893	1668135.0	1275069.0	729684.0	0.268706	0.558144
     29891.13	0.13064	1830358.0	1399170.0	801011.0	0.268632	0.557760
     29891.64	0.12889	1807599.0	1381641.0	791053.0	0.268728	0.557662
     29892.16	0.13450	1885111.0	1440797.0	825059.0	0.268790	0.557497
     29892.67	0.12131	1698772.0	1299042.0	743979.0	0.268279	0.557370
     29893.19	0.12970	1813780.0	1387136.0	794219.0	0.268172	0.557637
     29893.70	0.15420	2149115.0	1642930.0	941140.0	0.268575	0.557145
     29894.21	0.11408	1602049.0	1224926.0	701454.0	0.268403	0.557480
     29894.73	0.12311	1724603.0	1318539.0	755182.0	0.268473	0.557321
     29895.24	0.12217	1711184.0	1308113.0	749355.0	0.268600	0.557128
     29895.76	0.12371	1739015.0	1329745.0	761297.0	0.268332	0.557719
     29896.27	0.12752	1790924.0	1369257.0	784595.0	0.268463	0.556856
     29896.78	0.11921	1671534.0	1278422.0	732631.0	0.268115	0.556740
     29897.30	0.13666	1917695.0	1466513.0	840248.0	0.268236	0.556946
     29897.81	0.13797	1937264.0	1481321.0	848962.0	0.268342	0.556675
     29898.33	0.12834	1792850.0	1371099.0	785993.0	0.268194	0.556420
     29898.84	0.099427	1394914.0	1066659.0	611552.0	0.268301	0.556287
     29899.36	0.11862	1663806.0	1272248.0	729621.0	0.268322	0.556015
     29899.87	0.12209	1712995.0	1310203.0	750991.0	0.268061	0.556544
     29900.38	0.11622	1627854.0	1244808.0	714153.0	0.268281	0.555639
     29900.90	0.11674	1637152.0	1252371.0	718156.0	0.267920	0.556107
     29901.41	0.11857	1663155.0	1272467.0	729597.0	0.267759	0.556220
     29901.93	0.13088	1829969.0	1400327.0	803049.0	0.267593	0.556045
     29902.44	0.13931	1949490.0	1491340.0	855402.0	0.267893	0.555859
     29902.96	0.088055	1228354.0	939665.0	538793.0	0.267907	0.556192
     29903.47	0.10005	1402293.0	1072916.0	615572.0	0.267729	0.555584
     29903.98	0.12352	1733736.0	1326377.0	760991.0	0.267827	0.555585
     29904.50	0.11884	1663737.0	1272669.0	730342.0	0.267950	0.555359
     29905.01	0.13132	1831671.0	1401105.0	804264.0	0.267967	0.555089
     29905.53	0.12438	1732042.0	1325118.0	760357.0	0.267800	0.555469
     29906.04	0.13518	1881382.0	1440220.0	826655.0	0.267211	0.555164
     29906.56	0.14945	2085318.0	1595903.0	916103.0	0.267482	0.555066
     29907.07	0.11053	1545215.0	1182820.0	679134.0	0.267262	0.554838
     29907.59	0.12916	1807847.0	1383280.0	794230.0	0.267679	0.554840
     29908.10	0.13109	1836274.0	1405440.0	806981.0	0.267388	0.554806
     29908.62	0.13153	1837004.0	1406208.0	807791.0	0.267239	0.554349
     29909.13	0.13118	1825134.0	1397064.0	802126.0	0.267281	0.554862
     29909.64	0.12799	1788170.0	1368604.0	786169.0	0.267402	0.554375
     29910.16	0.17236	2406300.0	1842012.0	1058126.0	0.267232	0.554359
     29910.67	0.12586	1764312.0	1350520.0	775957.0	0.267271	0.554148
     29911.19	0.088852	1242602.0	951098.0	546490.0	0.267346	0.554101
     29911.70	0.12572	1756551.0	1344848.0	772762.0	0.267071	0.554065
     29912.22	0.14100	1969809.0	1508021.0	866721.0	0.267138	0.553836
     29912.73	0.13303	1859201.0	1422875.0	818067.0	0.267467	0.553491
     29913.25	0.14634	2040557.0	1562466.0	897929.0	0.266957	0.553930
     29913.76	0.12661	1760125.0	1347901.0	774702.0	0.266836	0.553825
     29914.28	0.13324	1861072.0	1425199.0	819620.0	0.266841	0.553226
     29914.79	0.14435	2010290.0	1539143.0	885057.0	0.267053	0.553329
     29915.31	0.12173	1692639.0	1296064.0	745584.0	0.266957	0.552919
     29915.82	0.12752	1779928.0	1363247.0	783922.0	0.266704	0.553315
     29916.34	0.12307	1693919.0	1297121.0	745786.0	0.266898	0.553464
     29916.85	0.12609	1737391.0	1330547.0	765018.0	0.266794	0.553446
     29917.37	0.12922	1780792.0	1363952.0	784428.0	0.266672	0.553187
     29917.88	0.12345	1708887.0	1308692.0	752873.0	0.266814	0.552887
     29918.40	0.12358	1714938.0	1313487.0	755359.0	0.266691	0.553248
     29918.91	0.13712	1888423.0	1446277.0	832397.0	0.266749	0.552438
     29919.43	0.11359	1554888.0	1191073.0	685354.0	0.266549	0.552674
     29919.94	0.12738	1755917.0	1344958.0	774173.0	0.266628	0.552323
     29920.46	0.11629	1609502.0	1233305.0	709551.0	0.266227	0.552820
     29920.97	0.12512	1739586.0	1332498.0	767010.0	0.266592	0.552311
     29921.49	0.12752	1769244.0	1355129.0	779901.0	0.266656	0.552485
     29922.00	0.12092	1670029.0	1279624.0	737036.0	0.266275	0.551685
     29922.52	0.12000	1663001.0	1274313.0	733802.0	0.266217	0.551923
     29923.03	0.11058	1514856.0	1160481.0	668455.0	0.266486	0.551621
     29923.55	0.13448	1834988.0	1406148.0	809785.0	0.266184	0.551841
     29924.06	0.12783	1764184.0	1352001.0	778630.0	0.266103	0.551805
     29924.58	0.11737	1623525.0	1243798.0	716479.0	0.266430	0.551576
     29925.09	0.11713	1617669.0	1239370.0	714130.0	0.266383	0.551293
     29925.61	0.11911	1641222.0	1257694.0	724494.0	0.266161	0.551562
     29926.12	0.13551	1869360.0	1433013.0	825573.0	0.265817	0.551457
     29926.64	0.11577	1598104.0	1224651.0	705616.0	0.266162	0.551340
     29927.15	0.13042	1811574.0	1388994.0	800477.0	0.265616	0.551127
     29927.67	0.12318	1711515.0	1311906.0	756254.0	0.265898	0.550859
     29928.18	0.13074	1809208.0	1386715.0	799612.0	0.265952	0.550566
     29928.70	0.13233	1825207.0	1399287.0	806752.0	0.265731	0.550702
     29929.21	0.12459	1722024.0	1320244.0	761278.0	0.265684	0.550573
     29929.73	0.12814	1779887.0	1364345.0	786632.0	0.265875	0.550669
     29930.24	0.11762	1633554.0	1252173.0	721837.0	0.265878	0.550836
     29930.76	0.12308	1701640.0	1304766.0	752846.0	0.265569	0.549918
     29931.27	0.12863	1770157.0	1357675.0	782959.0	0.265295	0.550449
     29931.79	0.11953	1661933.0	1273981.0	734946.0	0.265835	0.550105
     29932.31	0.12479	1727744.0	1324486.0	764232.0	0.265792	0.549908
     29932.82	0.12660	1751945.0	1343163.0	774945.0	0.265699	0.549991
     29933.34	0.13071	1806256.0	1384998.0	799014.0	0.265557	0.550076
     29933.85	0.12530	1734124.0	1329629.0	767484.0	0.265602	0.549538
     29934.37	0.13042	1807479.0	1386214.0	800128.0	0.265357	0.549560
     29934.88	0.12186	1692305.0	1297798.0	749093.0	0.265423	0.549561
     29935.40	0.14008	1933985.0	1482949.0	856011.0	0.265550	0.549505
     29935.91	0.12805	1780783.0	1365680.0	788659.0	0.265401	0.549074
     29936.43	0.12772	1768680.0	1356222.0	783144.0	0.265531	0.549142
     29936.94	0.11854	1629005.0	1249377.0	721554.0	0.265324	0.548993
     29937.46	0.12902	1778137.0	1364302.0	787842.0	0.264923	0.549101
     29937.98	0.12985	1791547.0	1373976.0	793539.0	0.265371	0.548961
     29938.49	0.12712	1756635.0	1347518.0	778512.0	0.265136	0.548635
     29939.01	0.12693	1740617.0	1335176.0	771619.0	0.265177	0.548327
     29939.52	0.12226	1690640.0	1297218.0	749455.0	0.264885	0.548631
     29940.04	0.11890	1643435.0	1260527.0	728606.0	0.265259	0.548152
     29940.55	0.12727	1768572.0	1356979.0	784211.0	0.264912	0.548338
     29941.07	0.11527	1597640.0	1225504.0	708622.0	0.265175	0.547785
     29941.59	0.11753	1627132.0	1248552.0	721553.0	0.264834	0.548334
     29942.10	0.12109	1681330.0	1290019.0	745893.0	0.264928	0.547830
     29942.62	0.11700	1618590.0	1241734.0	717793.0	0.265047	0.548083
     29943.13	0.10847	1500096.0	1151257.0	665827.0	0.264675	0.547580
     29943.65	0.11515	1589460.0	1219323.0	705089.0	0.265099	0.547727
     29944.16	0.10935	1519663.0	1166383.0	674650.0	0.264581	0.547469
     29944.68	0.12939	1783341.0	1368236.0	791267.0	0.264966	0.547642
     29945.20	0.11148	1536747.0	1179258.0	682357.0	0.264782	0.547088
     29945.71	0.12095	1666410.0	1278613.0	739500.0	0.264896	0.547557
     29946.23	0.12990	1793654.0	1376598.0	796603.0	0.264640	0.547014
     29946.74	0.11505	1587389.0	1218409.0	704969.0	0.264545	0.547147
     29947.26	0.15165	2083196.0	1598960.0	925239.0	0.264550	0.547057
     29947.78	0.11314	1567792.0	1203251.0	696617.0	0.264641	0.546547
     29948.29	0.12996	1785774.0	1371114.0	793605.0	0.264228	0.546793
     29948.81	0.12895	1786116.0	1370838.0	793453.0	0.264621	0.546783
     29949.32	0.12374	1709737.0	1312391.0	759791.0	0.264489	0.546563
     29949.84	0.13823	1904826.0	1462543.0	847183.0	0.264214	0.546015
     29950.36	0.12502	1729103.0	1327284.0	768845.0	0.264468	0.546001
     29950.87	0.13113	1812843.0	1391566.0	806161.0	0.264467	0.545902
     29951.39	0.13489	1842892.0	1414465.0	819340.0	0.264585	0.546008
     29951.90	0.12771	1738163.0	1334446.0	772948.0	0.264313	0.546060
     29952.42	0.12498	1701633.0	1306477.0	756865.0	0.264254	0.545905
     29952.94	0.12360	1685443.0	1294247.0	749981.0	0.264099	0.545636
     29953.45	0.12891	1769982.0	1359010.0	787496.0	0.264213	0.545653
     29953.97	0.14036	1924975.0	1478049.0	856517.0	0.264190	0.545604
     29954.48	0.13052	1799079.0	1381416.0	800388.0	0.264166	0.545768
     29955.00	0.14063	1933760.0	1484899.0	860930.0	0.264120	0.545089
     29955.52	0.13273	1812709.0	1392179.0	807126.0	0.263952	0.545146
     29956.03	0.13156	1810397.0	1390768.0	805992.0	0.263690	0.545538
     29956.55	0.13027	1792269.0	1376738.0	798158.0	0.263765	0.545166
     29957.07	0.12862	1766661.0	1356693.0	786819.0	0.264041	0.544807
     29957.58	0.12843	1767879.0	1357685.0	787562.0	0.263999	0.544594
     29958.10	0.12760	1758354.0	1350496.0	783459.0	0.263906	0.544508
     29958.61	0.12308	1695958.0	1303115.0	755703.0	0.263490	0.544864
     29959.13	0.12660	1732617.0	1330915.0	771869.0	0.263766	0.544807
     29959.65	0.12639	1744280.0	1339902.0	777277.0	0.263745	0.544555
     29960.16	0.12851	1754436.0	1347652.0	782101.0	0.263784	0.544135
     29960.68	0.12627	1725386.0	1325230.0	769002.0	0.263865	0.544248
     29961.20	0.11843	1629889.0	1252162.0	726474.0	0.263640	0.544424
     29961.71	0.13346	1847163.0	1419127.0	823766.0	0.263609	0.543911
     29962.23	0.12517	1707424.0	1312155.0	761676.0	0.263315	0.543905
     29962.75	0.12289	1682041.0	1292689.0	750333.0	0.263283	0.543963
     29963.26	0.12481	1712698.0	1315904.0	764006.0	0.263546	0.543704
     29963.78	0.12226	1684932.0	1294831.0	752074.0	0.263345	0.543301
     29964.30	0.12805	1721826.0	1322922.0	768104.0	0.263542	0.543673
     29964.81	0.11544	1587120.0	1219952.0	708328.0	0.263110	0.543660
     29965.33	0.11899	1622764.0	1247350.0	724409.0	0.263110	0.543420
     29965.84	0.12877	1772533.0	1362578.0	791416.0	0.263031	0.543310
     29966.36	0.10969	1502585.0	1154495.0	670809.0	0.263524	0.542934
     29966.88	0.11677	1599964.0	1229617.0	714437.0	0.263278	0.542963
     29967.39	0.13794	1890774.0	1453249.0	844603.0	0.263185	0.542690
     29967.91	0.13882	1908199.0	1466692.0	851817.0	0.263150	0.543393
     29968.43	0.13103	1786363.0	1372895.0	797734.0	0.263260	0.542902
     29968.94	0.11541	1573109.0	1209164.0	702628.0	0.263125	0.542857
     29969.46	0.12105	1662599.0	1278052.0	742918.0	0.263045	0.542507
     29969.98	0.13373	1832509.0	1408571.0	819045.0	0.263110	0.542192
     29970.49	0.12753	1740146.0	1337773.0	777996.0	0.262963	0.542040
     29971.01	0.12439	1711079.0	1315291.0	764958.0	0.263066	0.541992
     29971.53	0.12332	1688393.0	1298386.0	754917.0	0.262655	0.542269
     29972.04	0.13256	1794247.0	1380172.0	802415.0	0.262377	0.542337
     29972.56	0.13363	1821997.0	1401028.0	814957.0	0.262727	0.541826
     29973.08	0.10580	1441499.0	1108273.0	644778.0	0.262881	0.541652
     29973.60	0.11065	1519973.0	1168690.0	680128.0	0.262809	0.541358
     29974.11	0.13437	1855613.0	1427008.0	830491.0	0.262635	0.541318
     29974.63	0.12470	1714621.0	1318312.0	767173.0	0.262840	0.541395
     29975.15	0.13360	1824338.0	1403113.0	816819.0	0.262524	0.541031
     29975.66	0.13152	1796166.0	1381675.0	804463.0	0.262358	0.540877
     29976.18	0.13589	1865137.0	1434118.0	835094.0	0.262784	0.540761
     29976.70	0.17305	2373991.0	1825913.0	1062935.0	0.262492	0.541046
     29977.21	0.082698	1137365.0	875054.0	509433.0	0.262184	0.540987
     29977.73	0.11179	1535524.0	1180829.0	687542.0	0.262655	0.540849
     29978.25	0.13590	1872093.0	1439840.0	838456.0	0.262525	0.540725
     29978.76	0.12198	1671694.0	1285944.0	748992.0	0.262344	0.540520
     29979.28	0.12889	1773573.0	1364892.0	794846.0	0.261921	0.540682
     29979.80	0.13898	1902928.0	1463885.0	852590.0	0.262300	0.540570
     29980.32	0.13279	1824880.0	1404073.0	817774.0	0.262137	0.540547
     29980.83	0.18379	2522314.0	1940653.0	1130741.0	0.262152	0.540151
     29981.35	0.090776	1243554.0	956489.0	557109.0	0.262459	0.540508
     29981.87	0.099487	1352127.0	1040555.0	606313.0	0.261925	0.540113
     29982.38	0.10870	1495030.0	1150121.0	670266.0	0.262279	0.539948
     29982.90	0.11768	1619898.0	1246518.0	726597.0	0.262009	0.539737
     29983.42	0.11655	1610806.0	1239349.0	722659.0	0.262148	0.539404
     29983.94	0.12891	1779796.0	1369195.0	798214.0	0.262276	0.539602
     29984.45	0.13015	1786154.0	1374434.0	801595.0	0.262023	0.539194
     29984.97	0.14269	1941691.0	1494467.0	871171.0	0.261790	0.539687
     29985.49	0.10147	1382835.0	1064183.0	620416.0	0.261928	0.539572
     29986.00	0.094670	1290199.0	992734.0	579018.0	0.262089	0.539129
     29986.52	0.11087	1508091.0	1160649.0	676889.0	0.261865	0.539227
     29987.04	0.10642	1463987.0	1126988.0	657402.0	0.261615	0.539008
     29987.56	0.12951	1767079.0	1359886.0	793059.0	0.261927	0.539259
     29988.07	0.11858	1623602.0	1249832.0	728964.0	0.261638	0.539140
     29988.59	0.14350	1976131.0	1520865.0	887363.0	0.261862	0.538780
     29989.11	0.19969	2743510.0	2111936.0	1232444.0	0.261633	0.538606
     29989.63	0.094644	1306920.0	1006243.0	587381.0	0.261450	0.538305
     29990.14	0.094343	1292619.0	994935.0	580737.0	0.261748	0.538379
     29990.66	0.11889	1632876.0	1257196.0	733819.0	0.261459	0.538377
     29991.18	0.12207	1676259.0	1290615.0	753315.0	0.261446	0.538391
     29991.70	0.13455	1849865.0	1424483.0	831702.0	0.261304	0.538090
     29992.21	0.13360	1837861.0	1414794.0	825914.0	0.261618	0.538249
     29992.73	0.11999	1641954.0	1264009.0	737847.0	0.261599	0.538307
     29993.25	0.20674	2837837.0	2185252.0	1276142.0	0.261311	0.537890
     29993.77	0.10242	1413999.0	1088872.0	635873.0	0.261280	0.537899
     29994.28	0.093709	1291953.0	994728.0	580835.0	0.261441	0.538003
     29994.80	0.11589	1596730.0	1229631.0	718254.0	0.261244	0.537646
     29995.32	0.13131	1812554.0	1395888.0	815264.0	0.261206	0.537774
     29995.84	0.13425	1852539.0	1426634.0	833092.0	0.261239	0.537929
     29996.35	0.13440	1847444.0	1422421.0	831309.0	0.261443	0.537114
     29996.87	0.15522	2131535.0	1641357.0	958881.0	0.261319	0.537512
     29997.39	0.18940	2609640.0	2009965.0	1174772.0	0.261095	0.537043
     29997.91	0.076887	1052292.0	810580.0	473730.0	0.260976	0.537113
     29998.42	0.10907	1493906.0	1150763.0	672526.0	0.260969	0.537140
     29998.94	0.13762	1896853.0	1461179.0	854200.0	0.260953	0.536834
     29999.46	0.12443	1714613.0	1320855.0	772154.0	0.260908	0.536851
     29999.98	0.12520	1724676.0	1328729.0	776804.0	0.260816	0.536790
     30000.50	0.12796	1759381.0	1355343.0	792508.0	0.260907	0.536607
     30001.01	0.12215	1682998.0	1296623.0	758173.0	0.260814	0.536607
     30001.53	0.12819	1763140.0	1357631.0	793954.0	0.261355	0.536471
     30002.05	0.12224	1681679.0	1295337.0	757755.0	0.261022	0.536166
     30002.57	0.12801	1762044.0	1357596.0	794027.0	0.260759	0.536353
     30003.08	0.12328	1693497.0	1304989.0	763290.0	0.260601	0.536312
     30003.60	0.12795	1758227.0	1354504.0	792582.0	0.260871	0.535895
     30004.12	0.12546	1724625.0	1329110.0	777654.0	0.260500	0.535983
     30004.64	0.12360	1695606.0	1306633.0	764454.0	0.260587	0.536047
     30005.16	0.12035	1655113.0	1275300.0	746316.0	0.260688	0.535788
     30005.67	0.11667	1606635.0	1237821.0	724354.0	0.260789	0.535828
     30006.19	0.12382	1699709.0	1309806.0	766570.0	0.260578	0.535708
     30006.71	0.11633	1596417.0	1230400.0	719979.0	0.260422	0.535873
     30007.23	0.12835	1764854.0	1360040.0	796357.0	0.260554	0.535222
     30007.75	0.11961	1640618.0	1264529.0	740355.0	0.260373	0.535325
     30008.26	0.11293	1540633.0	1187392.0	695205.0	0.260434	0.535308
     30008.78	0.13892	1892251.0	1458560.0	854330.0	0.260317	0.534887
     30009.30	0.11439	1568476.0	1209179.0	708332.0	0.260163	0.534784
     30009.82	0.13451	1846395.0	1423413.0	833778.0	0.260178	0.534846
     30010.34	0.12920	1772446.0	1366196.0	800283.0	0.260330	0.534820
     30010.86	0.13472	1851742.0	1427544.0	836385.0	0.260171	0.534622
     30011.37	0.13517	1858815.0	1433173.0	839482.0	0.260048	0.534861
     30011.89	0.12293	1690360.0	1303177.0	763777.0	0.260136	0.534285
     30012.41	0.12750	1745247.0	1345263.0	788519.0	0.260307	0.534188
     30012.93	0.12248	1683447.0	1297935.0	760361.0	0.260069	0.534736
     30013.45	0.12185	1671760.0	1289005.0	755231.0	0.260006	0.534602
     30013.96	0.12398	1690027.0	1303371.0	764124.0	0.259791	0.533979
     30014.48	0.12099	1662596.0	1281963.0	751476.0	0.259988	0.534109
     30015.00	0.12592	1723762.0	1329263.0	779554.0	0.259884	0.533658
     30015.52	0.12716	1734334.0	1337634.0	784125.0	0.259721	0.534089
     30016.04	0.13038	1790873.0	1381055.0	809845.0	0.259856	0.533760
     30016.56	0.13056	1795836.0	1385040.0	812502.0	0.259742	0.533366
     30017.07	0.12690	1738201.0	1340918.0	786451.0	0.259496	0.533579
     30017.59	0.13206	1802811.0	1390452.0	815597.0	0.259718	0.533464
     30018.11	0.12496	1711969.0	1320428.0	774759.0	0.259688	0.533159
     30018.63	0.12599	1724151.0	1330157.0	780261.0	0.259438	0.533424
     30019.15	0.13127	1797973.0	1386961.0	814035.0	0.259545	0.532867
     30019.67	0.12581	1724353.0	1330323.0	780491.0	0.259430	0.533254
     30020.18	0.12290	1688779.0	1302752.0	764162.0	0.259527	0.533454
     30020.70	0.13266	1821533.0	1405542.0	824552.0	0.259255	0.533338
     30021.22	0.12426	1703301.0	1313947.0	771416.0	0.259533	0.532563
     30021.74	0.13483	1854510.0	1430673.0	839969.0	0.259476	0.532535
     30022.26	0.11541	1578616.0	1218600.0	714917.0	0.258846	0.533291
     30022.78	0.12309	1686143.0	1301191.0	764274.0	0.259164	0.532109
     30023.30	0.12792	1748522.0	1349173.0	792270.0	0.259279	0.532345
     30023.81	0.11236	1544435.0	1191806.0	699973.0	0.259188	0.532183
     30024.33	0.11747	1614583.0	1245576.0	731585.0	0.259479	0.532140
     30024.85	0.12152	1652785.0	1275420.0	749564.0	0.259186	0.531539
     30025.37	0.13390	1832607.0	1414357.0	830684.0	0.259065	0.532181
     30025.89	0.11678	1595362.0	1231141.0	723516.0	0.259159	0.531574
     30026.41	0.094456	1293008.0	997855.0	586208.0	0.259119	0.531933
     30026.93	0.10369	1422308.0	1097570.0	644807.0	0.259182	0.531903
     30027.44	0.12302	1681494.0	1297811.0	762655.0	0.259004	0.531629
     30027.96	0.12517	1708675.0	1319075.0	775574.0	0.258787	0.531083
     30028.48	0.12977	1773560.0	1369105.0	804976.0	0.258832	0.531100
     30029.00	0.13201	1805649.0	1393642.0	819010.0	0.259000	0.531579
     30029.52	0.12906	1765926.0	1362712.0	801271.0	0.259198	0.531033
     30030.04	0.12314	1683087.0	1299466.0	764057.0	0.258676	0.531066
     30030.56	0.11449	1545981.0	1193575.0	701697.0	0.258706	0.531207
     30031.08	0.13513	1838150.0	1419005.0	834317.0	0.258804	0.531098
     30031.60	0.12917	1757224.0	1356490.0	798057.0	0.258835	0.530476
     30032.11	0.12548	1702509.0	1314483.0	773426.0	0.258660	0.530369
     30032.63	0.13600	1859672.0	1435563.0	844366.0	0.258843	0.530726
     30033.15	0.15017	2049100.0	1581991.0	930784.0	0.258716	0.530412
     30033.67	0.14772	2007165.0	1550020.0	912201.0	0.258455	0.530163
     30034.19	0.091177	1231521.0	950941.0	559543.0	0.258553	0.530332
     30034.71	0.11769	1585917.0	1224888.0	721131.0	0.258313	0.529784
     30035.23	0.13873	1886114.0	1456461.0	857304.0	0.258509	0.529972
     30035.75	0.12625	1697907.0	1311074.0	771592.0	0.258550	0.530146
     30036.27	0.14466	1960032.0	1513102.0	891024.0	0.258799	0.529546
     30036.78	0.12479	1689251.0	1304757.0	768150.0	0.258268	0.529787
     30037.30	0.13897	1884693.0	1455578.0	857249.0	0.258362	0.529430
     30037.82	0.14293	1932525.0	1492489.0	878750.0	0.258382	0.529700
     30038.34	0.11899	1612583.0	1245672.0	733603.0	0.258162	0.529462
     30038.86	0.12685	1714632.0	1324348.0	780028.0	0.258278	0.529346
     30039.38	0.13562	1825212.0	1410394.0	830446.0	0.257827	0.529661
     30039.90	0.13059	1775516.0	1371366.0	807908.0	0.258284	0.529114
     30040.42	0.12351	1665114.0	1286212.0	757616.0	0.258192	0.529280
     30040.94	0.12683	1717667.0	1327057.0	782060.0	0.258003	0.528788
     30041.46	0.11897	1604288.0	1239285.0	730320.0	0.258145	0.528807
     30041.98	0.13359	1815237.0	1402074.0	826399.0	0.258263	0.528630
     30042.50	0.12332	1673088.0	1292859.0	761920.0	0.257815	0.528770
     30043.01	0.12152	1621902.0	1253373.0	739037.0	0.257761	0.528246
     30043.53	0.12993	1739934.0	1344197.0	792272.0	0.258050	0.528647
     30044.05	0.12807	1732175.0	1338637.0	789167.0	0.257726	0.528429
     30044.57	0.12525	1688564.0	1304953.0	769358.0	0.257711	0.528366
     30045.09	0.11838	1606735.0	1241591.0	732015.0	0.257811	0.528348
     30045.61	0.12321	1654235.0	1278540.0	753957.0	0.257620	0.528139
     30046.13	0.11402	1533066.0	1184488.0	698705.0	0.257959	0.527837
     30046.65	0.12744	1705021.0	1317770.0	777529.0	0.257637	0.527575
     30047.17	0.12237	1633869.0	1262570.0	744838.0	0.257801	0.527738
     30047.69	0.12059	1626439.0	1257255.0	741957.0	0.257462	0.527395
     30048.21	0.11327	1533873.0	1185100.0	699381.0	0.257969	0.527387
     30048.73	0.13803	1867329.0	1443444.0	851711.0	0.257477	0.527540
     30049.25	0.11529	1566539.0	1210640.0	714507.0	0.257720	0.527312
