# Diamond Light Source
# Instrument: B18-CORE XAS Date: Thu, 28 Jul 2016 02:51:22 BST
# Ring energy:   3.0
# Ring current - start: 301.1
# Primary slits:  vertical gap=  2.4; horizontal gap= 52.0; vertical offset=  0.4; horizontal offset= -1.0
# Secondary slits:  vertical gap=  3.5; horizontal gap= 23.0; vertical offset=  5.3; horizontal offset= -14.5
# OH Mirror Coating: Pt
# White beam filter: 140um PyC
# Crystal cut: Si(311)
# PostDCM slits:  vertical gap= 18.0; horizontal gap= 28.0; vertical offset= -9.1; horizontal offset= -16.5
# Experimental slits:  vertical gap= 28.6; horizontal gap= 45.0; vertical offset=  5.7; horizontal offset= -17.5
# HR Mirror : out; Y: 37.8; Pitch:  0.3; Coating: Pt
# Mirror 2: Pitch:  2.3; Height: -6.4; Yaw: -1.6; Bend:  0.8;
# I0 Stanford sensitivity: 20 nA/V Offsets: 20 pA
# It Stanford sensitivity: 100 nA/V Offsets: 1 pA
# Iref Stanford sensitivity: 20 nA/V Offsets: 1 pA
#
# Ascii output file name: 'Andrea_Sn//ascii/262932_PtSn_OCH_H2_Abu_4.dat'
# Nexus output file: '/dls/b18/data/2016/sp10306-9/Andrea_Sn//nexus/262932_PtSn_OCH_H2_Abu_4.nxs'
# XML folder and files:
# /dls/b18/data/2016/sp10306-9/xml/Andrea_Sn/
# QEXAFS_Parameters
# Sample_Parameters
# Detector_Parameters
# Output_Parameters
# The contents of these files are also stored in the nexus file.
#
# Sample name: PtSn_OCH_H2_Abu
# Sample description: default sample description
# Additional comments: default additional comments
# command: qexafs_energy 29000.0 30050.0 2094 263.53 qexafs_counterTimer01
#
#
# qexafs_energy	   time	       I0	       It	     Iref	  lnI0It	 lnItIref
     29000.24	0.15493	2498419.0	2228118.0	4603841.0	0.114501	-0.725734
     29000.73	0.17565	2824697.0	2519594.0	5206230.0	0.114303	-0.725758
     29001.21	0.10724	1724441.0	1538339.0	3178959.0	0.114200	-0.725851
     29001.69	0.088114	1412058.0	1260261.0	2604279.0	0.113729	-0.725837
     29002.18	0.12956	2085709.0	1860393.0	3844987.0	0.114321	-0.725982
     29002.66	0.12375	1990253.0	1775427.0	3668941.0	0.114221	-0.725862
     29003.14	0.14023	2256311.0	2012842.0	4160238.0	0.114184	-0.726025
     29003.63	0.12075	1945393.0	1735509.0	3586605.0	0.114163	-0.725905
     29004.11	0.12195	1963109.0	1751397.0	3619617.0	0.114116	-0.725954
     29004.59	0.12547	2013879.0	1796439.0	3712602.0	0.114256	-0.725927
     29005.08	0.12851	2073534.0	1850232.0	3823312.0	0.113943	-0.725806
     29005.56	0.13074	2100455.0	1874402.0	3874161.0	0.113864	-0.726039
     29006.05	0.12354	1985362.0	1771837.0	3661833.0	0.113784	-0.725947
     29006.53	0.11609	1873329.0	1671389.0	3453887.0	0.114062	-0.725845
     29007.01	0.13955	2250934.0	2008430.0	4150656.0	0.113992	-0.725913
     29007.50	0.12361	1989261.0	1775362.0	3669079.0	0.113759	-0.725936
     29007.98	0.11910	1918464.0	1711954.0	3538182.0	0.113889	-0.725978
     29008.46	0.12141	1959184.0	1748227.0	3612853.0	0.113926	-0.725896
     29008.95	0.10740	1732657.0	1546272.0	3196168.0	0.113809	-0.726106
     29009.43	0.12699	2048427.0	1828496.0	3779942.0	0.113578	-0.726215
     29009.92	0.12022	1932940.0	1725198.0	3565220.0	0.113700	-0.725884
     29010.40	0.12818	2071862.0	1849039.0	3820435.0	0.113782	-0.725698
     29010.88	0.11210	1807741.0	1613247.0	3334157.0	0.113829	-0.725971
     29011.37	0.13626	2200589.0	1964226.0	4059612.0	0.113627	-0.725989
     29011.85	0.12225	1972594.0	1760764.0	3639463.0	0.113602	-0.726088
     29012.34	0.12976	2102820.0	1877308.0	3880427.0	0.113440	-0.726106
     29012.82	0.12634	2038301.0	1819611.0	3760285.0	0.113494	-0.725872
     29013.30	0.13210	2118702.0	1891098.0	3910264.0	0.113646	-0.726447
     29013.79	0.11930	1919968.0	1714290.0	3542717.0	0.113310	-0.725895
     29014.27	0.13934	2255738.0	2013668.0	4161363.0	0.113519	-0.725885
     29014.76	0.12416	2009000.0	1793291.0	3706830.0	0.113585	-0.726125
     29015.24	0.12677	2050273.0	1830546.0	3782509.0	0.113359	-0.725773
     29015.72	0.11775	1901971.0	1698209.0	3509599.0	0.113317	-0.725928
     29016.21	0.12313	1993881.0	1779759.0	3678742.0	0.113605	-0.726093
     29016.69	0.12160	1964939.0	1754225.0	3626223.0	0.113434	-0.726164
     29017.18	0.13269	2138771.0	1909575.0	3946586.0	0.113351	-0.725970
     29017.66	0.12864	2080282.0	1857441.0	3839247.0	0.113304	-0.726077
     29018.14	0.12109	1958202.0	1748414.0	3612831.0	0.113318	-0.725783
     29018.63	0.13529	2193346.0	1958129.0	4047741.0	0.113439	-0.726170
     29019.11	0.13609	2200527.0	1964313.0	4059710.0	0.113554	-0.725969
     29019.60	0.12557	2031634.0	1814667.0	3750633.0	0.112938	-0.726023
     29020.08	0.12842	2068124.0	1846565.0	3816388.0	0.113315	-0.725977
     29020.57	0.11951	1931471.0	1724871.0	3564542.0	0.113130	-0.725883
     29021.05	0.12510	2017871.0	1802112.0	3724265.0	0.113084	-0.725910
     29021.53	0.13143	2129243.0	1901659.0	3929815.0	0.113040	-0.725866
     29022.02	0.12796	2072457.0	1851152.0	3825227.0	0.112927	-0.725810
     29022.50	0.13873	2245860.0	2005773.0	4144715.0	0.113059	-0.725805
     29022.99	0.12869	2082992.0	1860705.0	3844260.0	0.112850	-0.725626
     29023.47	0.13611	2205942.0	1970003.0	4071093.0	0.113120	-0.725876
     29023.96	0.11229	1815974.0	1621844.0	3351093.0	0.113058	-0.725723
     29024.44	0.11465	1856017.0	1657820.0	3425534.0	0.112929	-0.725754
     29024.92	0.11608	1879320.0	1678500.0	3468776.0	0.113009	-0.725901
     29025.41	0.11991	1940816.0	1733894.0	3582753.0	0.112739	-0.725762
     29025.89	0.12364	2003313.0	1789509.0	3698230.0	0.112861	-0.725913
     29026.38	0.12389	2008852.0	1794400.0	3708149.0	0.112893	-0.725862
     29026.86	0.13036	2111669.0	1886240.0	3897304.0	0.112893	-0.725700
     29027.35	0.11138	1805884.0	1612939.0	3333132.0	0.112992	-0.725854
     29027.83	0.099177	1608749.0	1436953.0	2969662.0	0.112932	-0.725923
     29028.32	0.11679	1893832.0	1692018.0	3496875.0	0.112680	-0.725948
     29028.80	0.11270	1826096.0	1631595.0	3373133.0	0.112622	-0.726284
     29029.28	0.13057	2115390.0	1889961.0	3905798.0	0.112683	-0.725906
     29029.77	0.12851	2071499.0	1850752.0	3825080.0	0.112680	-0.725987
     29030.25	0.13260	2147405.0	1918334.0	3964872.0	0.112803	-0.726016
     29030.74	0.14552	2356492.0	2105667.0	4352225.0	0.112542	-0.726055
     29031.22	0.11085	1792057.0	1601411.0	3310150.0	0.112479	-0.726108
     29031.71	0.11949	1932997.0	1727203.0	3569411.0	0.112568	-0.725897
     29032.19	0.12700	2054720.0	1835680.0	3794393.0	0.112725	-0.726109
     29032.68	0.12580	2033417.0	1817291.0	3755779.0	0.112371	-0.725949
     29033.16	0.14176	2289054.0	2045628.0	4228169.0	0.112434	-0.726064
     29033.65	0.13938	2251602.0	2012475.0	4160564.0	0.112277	-0.726285
     29034.13	0.16011	2586411.0	2311530.0	4777617.0	0.112362	-0.726032
     29034.62	0.11431	1849934.0	1653507.0	3417702.0	0.112251	-0.726070
     29035.10	0.095345	1537635.0	1374025.0	2840802.0	0.112501	-0.726342
     29035.58	0.12071	1950330.0	1743105.0	3603772.0	0.112331	-0.726313
     29036.07	0.14594	2350826.0	2100878.0	4343691.0	0.112411	-0.726369
     29036.55	0.11466	1853304.0	1656186.0	3423506.0	0.112453	-0.726148
     29037.04	0.14126	2279592.0	2037256.0	4211151.0	0.112393	-0.726132
     29037.52	0.13538	2181893.0	1950393.0	4031462.0	0.112162	-0.726098
     29038.01	0.13422	2169012.0	1938347.0	4006648.0	0.112436	-0.726119
     29038.49	0.13132	2117628.0	1892504.0	3911762.0	0.112396	-0.726087
     29038.98	0.12485	2009755.0	1796863.0	3713921.0	0.111970	-0.726046
     29039.46	0.13649	2201234.0	1967620.0	4067025.0	0.112193	-0.726087
     29039.95	0.12450	1997697.0	1785810.0	3692109.0	0.112123	-0.726326
     29040.43	0.13015	2098024.0	1875571.0	3876012.0	0.112083	-0.725894
     29040.92	0.12785	2055754.0	1837698.0	3799061.0	0.112129	-0.726240
     29041.40	0.11883	1909213.0	1706740.0	3528983.0	0.112106	-0.726425
     29041.89	0.12991	2099019.0	1876781.0	3878888.0	0.111912	-0.725990
     29042.37	0.12517	2015191.0	1801302.0	3723378.0	0.112204	-0.726122
     29042.86	0.11559	1860238.0	1663349.0	3438031.0	0.111871	-0.726066
     29043.34	0.13638	2196054.0	1963484.0	4058140.0	0.111942	-0.726004
     29043.83	0.11774	1890731.0	1690347.0	3493729.0	0.112030	-0.726036
     29044.31	0.13403	2143080.0	1916513.0	3961288.0	0.111737	-0.726062
     29044.80	0.11893	1907235.0	1705287.0	3525367.0	0.111921	-0.726251
     29045.28	0.12610	2027339.0	1812768.0	3747039.0	0.111869	-0.726111
     29045.77	0.11308	1814645.0	1622538.0	3354722.0	0.111898	-0.726377
     29046.25	0.12366	1991578.0	1780907.0	3681701.0	0.111805	-0.726252
     29046.74	0.11343	1823974.0	1631307.0	3372051.0	0.111636	-0.726140
     29047.22	0.12469	2010648.0	1798024.0	3715917.0	0.111769	-0.725937
     29047.71	0.11911	1920382.0	1717703.0	3549852.0	0.111536	-0.725918
     29048.19	0.12882	2072626.0	1853561.0	3831268.0	0.111708	-0.726087
     29048.68	0.12177	1954840.0	1748106.0	3613732.0	0.111775	-0.726208
     29049.16	0.13448	2162493.0	1934136.0	3997161.0	0.111601	-0.725924
     29049.65	0.11394	1833562.0	1640080.0	3389448.0	0.111516	-0.725922
     29050.13	0.13008	2086810.0	1866484.0	3857252.0	0.111580	-0.725899
     29050.62	0.13640	2198806.0	1966615.0	4065089.0	0.111601	-0.726122
     29051.10	0.13901	2240926.0	2004335.0	4141347.0	0.111577	-0.725709
     29051.59	0.10918	1755399.0	1569871.0	3244787.0	0.111703	-0.726056
     29052.08	0.13737	2208623.0	1975374.0	4081694.0	0.111611	-0.725754
     29052.56	0.12058	1942934.0	1738302.0	3592235.0	0.111290	-0.725866
     29053.05	0.11782	1891625.0	1691962.0	3496979.0	0.111547	-0.726011
     29053.53	0.11595	1869265.0	1672159.0	3455358.0	0.111430	-0.725810
     29054.02	0.13135	2117996.0	1894864.0	3914981.0	0.111323	-0.725663
     29054.50	0.12888	2070451.0	1852205.0	3827654.0	0.111390	-0.725875
     29054.99	0.12701	2047537.0	1832111.0	3786368.0	0.111169	-0.725938
     29055.47	0.12257	1971234.0	1763552.0	3644157.0	0.111330	-0.725795
     29055.96	0.14127	2256646.0	2018617.0	4171424.0	0.111467	-0.725845
     29056.44	0.12734	2049984.0	1834186.0	3789949.0	0.111231	-0.725752
     29056.93	0.12608	2025999.0	1812886.0	3745395.0	0.111143	-0.725607
     29057.41	0.12067	1943169.0	1738591.0	3592475.0	0.111245	-0.725766
     29057.90	0.13029	2095114.0	1874382.0	3873324.0	0.111329	-0.725834
     29058.39	0.13003	2090869.0	1871310.0	3866337.0	0.110941	-0.725669
     29058.87	0.13722	2201963.0	1969527.0	4070334.0	0.111556	-0.725932
     29059.36	0.12744	2043316.0	1828460.0	3778129.0	0.111100	-0.725755
     29059.84	0.12606	2016480.0	1804516.0	3728389.0	0.111061	-0.725684
     29060.33	0.13368	2139607.0	1914921.0	3957244.0	0.110946	-0.725871
     29060.81	0.10803	1730836.0	1548741.0	3200060.0	0.111162	-0.725727
     29061.30	0.12079	1944352.0	1740476.0	3595432.0	0.110770	-0.725506
     29061.78	0.13009	2085350.0	1866028.0	3855612.0	0.111125	-0.725718
     29062.27	0.12836	2060635.0	1843989.0	3810370.0	0.111083	-0.725795
     29062.76	0.12349	1985964.0	1777437.0	3672291.0	0.110932	-0.725643
     29063.24	0.13426	2144321.0	1919574.0	3966844.0	0.110720	-0.725868
     29063.73	0.11807	1883024.0	1685332.0	3482194.0	0.110916	-0.725700
     29064.21	0.14044	2246230.0	2010468.0	4152758.0	0.110886	-0.725405
     29064.70	0.088988	1433536.0	1283173.0	2650912.0	0.110808	-0.725568
     29065.18	0.10682	1716078.0	1536069.0	3172994.0	0.110815	-0.725449
     29065.67	0.093365	1489417.0	1333094.0	2754436.0	0.110882	-0.725710
     29066.16	0.12604	2025148.0	1812404.0	3743641.0	0.110989	-0.725405
     29066.64	0.11578	1858230.0	1663520.0	3436280.0	0.110689	-0.725454
     29067.13	0.13782	2206568.0	1975072.0	4080491.0	0.110834	-0.725612
     29067.61	0.15721	2509293.0	2246633.0	4642002.0	0.110568	-0.725713
     29068.10	0.12534	2010122.0	1799364.0	3717618.0	0.110762	-0.725650
     29068.59	0.091028	1456523.0	1304086.0	2694539.0	0.110550	-0.725725
     29069.07	0.12863	2042721.0	1828685.0	3777393.0	0.110686	-0.725437
     29069.56	0.12294	1969919.0	1763357.0	3642240.0	0.110773	-0.725379
     29070.04	0.13433	2136404.0	1912605.0	3950249.0	0.110658	-0.725312
     29070.53	0.12586	2017746.0	1806592.0	3731053.0	0.110539	-0.725248
     29071.01	0.13329	2129415.0	1906541.0	3937298.0	0.110557	-0.725204
     29071.50	0.19737	3156546.0	2826393.0	5837163.0	0.110477	-0.725244
     29071.99	0.090863	1444666.0	1293752.0	2671574.0	0.110332	-0.725121
     29072.47	0.091332	1452100.0	1300374.0	2685119.0	0.110359	-0.725073
     29072.96	0.13642	2171441.0	1944277.0	4015815.0	0.110501	-0.725350
     29073.44	0.12096	1935903.0	1733354.0	3578974.0	0.110516	-0.725018
     29073.93	0.14405	2273770.0	2036165.0	4205420.0	0.110371	-0.725306
     29074.42	0.12648	2014141.0	1803249.0	3723296.0	0.110603	-0.725019
     29074.90	0.13794	2199269.0	1969926.0	4068106.0	0.110129	-0.725182
     29075.39	0.16562	2635492.0	2360470.0	4873030.0	0.110209	-0.724855
     29075.87	0.12802	2042279.0	1828972.0	3775132.0	0.110312	-0.724681
     29076.36	0.10588	1696893.0	1519854.0	3136787.0	0.110185	-0.724585
     29076.85	0.12873	2054007.0	1839913.0	3798451.0	0.110074	-0.724875
     29077.33	0.12869	2057430.0	1842757.0	3803444.0	0.110195	-0.724644
     29077.82	0.12982	2071877.0	1855655.0	3830230.0	0.110217	-0.724687
     29078.31	0.13091	2086585.0	1868908.0	3857536.0	0.110174	-0.724674
     29078.79	0.12241	1953078.0	1749065.0	3609981.0	0.110325	-0.724621
     29079.28	0.14795	2369383.0	2122072.0	4379466.0	0.110237	-0.724534
     29079.76	0.10872	1732413.0	1552270.0	3203579.0	0.109797	-0.724550
     29080.25	0.11594	1850190.0	1657126.0	3419160.0	0.110204	-0.724310
     29080.74	0.12742	2030300.0	1818102.0	3752182.0	0.110390	-0.724544
     29081.22	0.12512	1977941.0	1771450.0	3656315.0	0.110258	-0.724657
     29081.71	0.12481	1986565.0	1779670.0	3671176.0	0.109979	-0.724084
     29082.20	0.13030	2075569.0	1859207.0	3836186.0	0.110085	-0.724329
     29082.68	0.12380	1967238.0	1762265.0	3636320.0	0.110031	-0.724372
     29083.17	0.11931	1889392.0	1692335.0	3490662.0	0.110146	-0.723982
     29083.65	0.12782	2040925.0	1828732.0	3771807.0	0.109780	-0.723931
     29084.14	0.11307	1803417.0	1615633.0	3332403.0	0.109956	-0.723967
     29084.63	0.11845	1892489.0	1695606.0	3497619.0	0.109853	-0.724042
     29085.11	0.12933	2066020.0	1851245.0	3817584.0	0.109766	-0.723759
     29085.60	0.12243	1945974.0	1743151.0	3595226.0	0.110068	-0.723912
     29086.09	0.11219	1786002.0	1600662.0	3300250.0	0.109562	-0.723581
     29086.57	0.12960	2068573.0	1853787.0	3822024.0	0.109628	-0.723550
     29087.06	0.13322	2127314.0	1906161.0	3929835.0	0.109769	-0.723506
     29087.55	0.10754	1711548.0	1533373.0	3161960.0	0.109928	-0.723722
     29088.03	0.13681	2175153.0	1949044.0	4017509.0	0.109760	-0.723323
     29088.52	0.12933	2054509.0	1840761.0	3794981.0	0.109858	-0.723500
     29089.01	0.13864	2207917.0	1978285.0	4078246.0	0.109819	-0.723437
     29089.49	0.12764	2025457.0	1814850.0	3741250.0	0.109793	-0.723417
     29089.98	0.12915	2050837.0	1838012.0	3788118.0	0.109563	-0.723185
     29090.47	0.12446	1976726.0	1771586.0	3651103.0	0.109567	-0.723154
     29090.95	0.11066	1760398.0	1577730.0	3251041.0	0.109553	-0.722988
     29091.44	0.12607	2004449.0	1796465.0	3702466.0	0.109548	-0.723178
     29091.93	0.12729	2023501.0	1813440.0	3736118.0	0.109604	-0.722822
     29092.41	0.12466	1981596.0	1775864.0	3659029.0	0.109616	-0.722911
     29092.90	0.13154	2091809.0	1875380.0	3862750.0	0.109218	-0.722568
     29093.39	0.13059	2069059.0	1854663.0	3820493.0	0.109391	-0.722676
     29093.87	0.13457	2139182.0	1917204.0	3948711.0	0.109556	-0.722521
     29094.36	0.11890	1877392.0	1682568.0	3465967.0	0.109562	-0.722670
     29094.85	0.14268	2266035.0	2030973.0	4182024.0	0.109517	-0.722280
     29095.33	0.11568	1832953.0	1643152.0	3383205.0	0.109312	-0.722207
     29095.82	0.13490	2148435.0	1925628.0	3964392.0	0.109488	-0.722100
     29096.31	0.12913	2048262.0	1836270.0	3780446.0	0.109255	-0.722106
     29096.79	0.13246	2100201.0	1882419.0	3874837.0	0.109475	-0.721946
     29097.28	0.13460	2136522.0	1915180.0	3942415.0	0.109368	-0.721982
     29097.77	0.12969	2058027.0	1844892.0	3796700.0	0.109327	-0.721712
     29098.25	0.11290	1794063.0	1608316.0	3309920.0	0.109295	-0.721736
     29098.74	0.13890	2213779.0	1984867.0	4085015.0	0.109149	-0.721773
     29099.23	0.11158	1767418.0	1584559.0	3260195.0	0.109214	-0.721481
     29099.71	0.12077	1913455.0	1715288.0	3529504.0	0.109330	-0.721576
     29100.20	0.12386	1961008.0	1758116.0	3616271.0	0.109216	-0.721201
     29100.69	0.12801	2032281.0	1822200.0	3747342.0	0.109114	-0.721002
     29101.17	0.13347	2108003.0	1890391.0	3887588.0	0.108957	-0.721005
     29101.66	0.10740	1712783.0	1535367.0	3156793.0	0.109350	-0.720787
     29102.15	0.13299	2117255.0	1898403.0	3902947.0	0.109107	-0.720719
     29102.64	0.098291	1558454.0	1396961.0	2871722.0	0.109395	-0.720613
     29103.12	0.11317	1804270.0	1618049.0	3325406.0	0.108935	-0.720371
     29103.61	0.11386	1793417.0	1608319.0	3305697.0	0.108933	-0.720458
     29104.10	0.12131	1924912.0	1726228.0	3547407.0	0.108942	-0.720278
     29104.58	0.10882	1723510.0	1545447.0	3175370.0	0.109050	-0.720111
     29105.07	0.12303	1935261.0	1735398.0	3566262.0	0.109005	-0.720281
     29105.56	0.12929	2051401.0	1839691.0	3778541.0	0.108925	-0.719740
     29106.04	0.13315	2108195.0	1890414.0	3883085.0	0.109036	-0.719834
     29106.53	0.10779	1705100.0	1529061.0	3140371.0	0.108970	-0.719687
     29107.02	0.13625	2155527.0	1933208.0	3969131.0	0.108854	-0.719366
     29107.51	0.12087	1907055.0	1710783.0	3512970.0	0.108609	-0.719511
     29107.99	0.12998	2059345.0	1847391.0	3790993.0	0.108614	-0.718854
     29108.48	0.13609	2155867.0	1933680.0	3968902.0	0.108768	-0.719065
     29108.97	0.12903	2052948.0	1841059.0	3778360.0	0.108936	-0.718949
     29109.46	0.14133	2242873.0	2012099.0	4127224.0	0.108579	-0.718427
     29109.94	0.12894	2055228.0	1843518.0	3781015.0	0.108711	-0.718317
     29110.43	0.12215	1948935.0	1748149.0	3585131.0	0.108726	-0.718238
     29110.92	0.11812	1875322.0	1681621.0	3448340.0	0.109022	-0.718135
     29111.40	0.12992	2065980.0	1853092.0	3799187.0	0.108749	-0.717932
     29111.89	0.12455	1971381.0	1768597.0	3624901.0	0.108548	-0.717640
     29112.38	0.12988	2066440.0	1853904.0	3798575.0	0.108534	-0.717332
     29112.87	0.13373	2123060.0	1904506.0	3901909.0	0.108636	-0.717243
     29113.35	0.14267	2261237.0	2028935.0	4155859.0	0.108401	-0.717008
     29113.84	0.15250	2426361.0	2176612.0	4457726.0	0.108623	-0.716869
     29114.33	0.12802	2031213.0	1822707.0	3732309.0	0.108310	-0.716704
     29114.82	0.12022	1902572.0	1706928.0	3495031.0	0.108511	-0.716647
     29115.30	0.13725	2181878.0	1957420.0	4005842.0	0.108559	-0.716127
     29115.79	0.13062	2068114.0	1855730.0	3797844.0	0.108359	-0.716155
     29116.28	0.12293	1945378.0	1745371.0	3571178.0	0.108489	-0.715928
     29116.77	0.12785	2026273.0	1818128.0	3718723.0	0.108391	-0.715573
     29117.25	0.12763	2024969.0	1816982.0	3715776.0	0.108378	-0.715411
     29117.74	0.12711	2009902.0	1803050.0	3686410.0	0.108606	-0.715173
     29118.23	0.11986	1908997.0	1712725.0	3501106.0	0.108492	-0.714993
     29118.72	0.12175	1929536.0	1731356.0	3538211.0	0.108375	-0.714716
     29119.20	0.12028	1900014.0	1704974.0	3482967.0	0.108311	-0.714335
     29119.69	0.13341	2113124.0	1896666.0	3873182.0	0.108070	-0.713979
     29120.18	0.12698	2006650.0	1800437.0	3676008.0	0.108437	-0.713798
     29120.67	0.12403	1958894.0	1757857.0	3589028.0	0.108285	-0.713786
     29121.15	0.12717	2018888.0	1811478.0	3697169.0	0.108404	-0.713424
     29121.64	0.11889	1883270.0	1689958.0	3448254.0	0.108306	-0.713164
     29122.13	0.11418	1805242.0	1620715.0	3306076.0	0.107827	-0.712895
     29122.62	0.12245	1938397.0	1739510.0	3547310.0	0.108258	-0.712586
     29123.10	0.11694	1854641.0	1664174.0	3392135.0	0.108362	-0.712131
     29123.59	0.12197	1929129.0	1731092.0	3527697.0	0.108316	-0.711893
     29124.08	0.12468	1969902.0	1767775.0	3601041.0	0.108262	-0.711501
     29124.57	0.12510	1986496.0	1782596.0	3630811.0	0.108302	-0.711385
     29125.06	0.11978	1902548.0	1707507.0	3476861.0	0.108160	-0.711095
     29125.54	0.11695	1857220.0	1666788.0	3392895.0	0.108182	-0.710785
     29126.03	0.13185	2095443.0	1880397.0	3826582.0	0.108282	-0.710489
     29126.52	0.11815	1873169.0	1681820.0	3420655.0	0.107755	-0.709956
     29127.01	0.12584	2001635.0	1796020.0	3652959.0	0.108391	-0.709964
     29127.49	0.13440	2129436.0	1911016.0	3884615.0	0.108222	-0.709389
     29127.98	0.12740	2006329.0	1800754.0	3658850.0	0.108101	-0.708943
     29128.47	0.12420	1973723.0	1771565.0	3598836.0	0.108058	-0.708747
     29128.96	0.13738	2180022.0	1956908.0	3973983.0	0.107969	-0.708403
     29129.45	0.12157	1925447.0	1728147.0	3507673.0	0.108108	-0.707903
     29129.93	0.11863	1875952.0	1683580.0	3416110.0	0.108194	-0.707580
     29130.42	0.13273	2095887.0	1880962.0	3815607.0	0.108194	-0.707316
     29130.91	0.12069	1914247.0	1717963.0	3483920.0	0.108185	-0.707019
     29131.40	0.12589	1990828.0	1786926.0	3621929.0	0.108054	-0.706510
     29131.89	0.12140	1923047.0	1726223.0	3497020.0	0.107975	-0.705975
     29132.37	0.12563	1987313.0	1783494.0	3611015.0	0.108209	-0.705415
     29132.86	0.13932	2202523.0	1977028.0	4001380.0	0.108009	-0.705045
     29133.35	0.12681	2006661.0	1801470.0	3644566.0	0.107869	-0.704634
     29133.84	0.11717	1856998.0	1666377.0	3370384.0	0.108309	-0.704375
     29134.33	0.13053	2070045.0	1858043.0	3755761.0	0.108047	-0.703767
     29134.81	0.13225	2097691.0	1882868.0	3804026.0	0.108041	-0.703264
     29135.30	0.13111	2073937.0	1861467.0	3759098.0	0.108084	-0.702814
     29135.79	0.13347	2117770.0	1901046.0	3837411.0	0.107959	-0.702394
     29136.28	0.12920	2044724.0	1834989.0	3702256.0	0.108224	-0.701904
     29136.77	0.12230	1918657.0	1722473.0	3472886.0	0.107864	-0.701225
     29137.25	0.12504	1984544.0	1781188.0	3590143.0	0.108109	-0.700911
     29137.74	0.12763	2025331.0	1818434.0	3661942.0	0.107757	-0.700018
     29138.23	0.13025	2060967.0	1850767.0	3725957.0	0.107575	-0.699724
     29138.72	0.12489	1966318.0	1764680.0	3550256.0	0.108193	-0.699050
     29139.21	0.12697	2008055.0	1802437.0	3624786.0	0.108027	-0.698656
     29139.70	0.12403	1967649.0	1766581.0	3549897.0	0.107793	-0.697873
     29140.18	0.13236	2092396.0	1877928.0	3771686.0	0.108141	-0.697353
     29140.67	0.11476	1825634.0	1638582.0	3289073.0	0.108096	-0.696775
     29141.16	0.12705	2016674.0	1810146.0	3631616.0	0.108042	-0.696270
     29141.65	0.11176	1768770.0	1587858.0	3182881.0	0.107898	-0.695401
     29142.14	0.12047	1914204.0	1718538.0	3442356.0	0.107828	-0.694682
     29142.63	0.11375	1803894.0	1619183.0	3242315.0	0.108026	-0.694366
     29143.11	0.11431	1813841.0	1627715.0	3256632.0	0.108270	-0.693516
     29143.60	0.11995	1900142.0	1706094.0	3410786.0	0.107722	-0.692736
     29144.09	0.11561	1830837.0	1643635.0	3283889.0	0.107863	-0.692118
     29144.58	0.11246	1774510.0	1593020.0	3180230.0	0.107893	-0.691322
     29145.07	0.12408	1950724.0	1751735.0	3493616.0	0.107594	-0.690331
     29145.56	0.12031	1903175.0	1708453.0	3405020.0	0.107935	-0.689663
     29146.04	0.12677	1995469.0	1791290.0	3567239.0	0.107943	-0.688856
     29146.53	0.13630	2144139.0	1925094.0	3830233.0	0.107763	-0.687951
     29147.02	0.11346	1787978.0	1605286.0	3191704.0	0.107783	-0.687253
     29147.51	0.12858	2036503.0	1827906.0	3630723.0	0.108063	-0.686261
     29148.00	0.12942	2033986.0	1826334.0	3623545.0	0.107687	-0.685142
     29148.49	0.12197	1930386.0	1733190.0	3435921.0	0.107756	-0.684321
     29148.98	0.14654	2316332.0	2079666.0	4118942.0	0.107778	-0.683389
     29149.46	0.14353	2257722.0	2026571.0	4009764.0	0.108011	-0.682387
     29149.95	0.12635	1992249.0	1787983.0	3534882.0	0.108176	-0.681592
     29150.44	0.10773	1699993.0	1526084.0	3013167.0	0.107919	-0.680287
     29150.93	0.12198	1916907.0	1720512.0	3393405.0	0.108091	-0.679212
     29151.42	0.13972	2201180.0	1976090.0	3892962.0	0.107873	-0.678050
     29151.91	0.12389	1952736.0	1752346.0	3448518.0	0.108276	-0.676989
     29152.40	0.13197	2075282.0	1862744.0	3661082.0	0.108046	-0.675708
     29152.88	0.13852	2182859.0	1959700.0	3847101.0	0.107844	-0.674528
     29153.37	0.16261	2567287.0	2304330.0	4517012.0	0.108060	-0.673061
     29153.86	0.12066	1888247.0	1694998.0	3318390.0	0.107967	-0.671798
     29154.35	0.10689	1693339.0	1519791.0	2971998.0	0.108129	-0.670662
     29154.84	0.12431	1968357.0	1766479.0	3449383.0	0.108211	-0.669207
     29155.33	0.13927	2196606.0	1971359.0	3844738.0	0.108190	-0.667982
     29155.82	0.13251	2081984.0	1868562.0	3638142.0	0.108152	-0.666304
     29156.31	0.13144	2063896.0	1851633.0	3600341.0	0.108528	-0.664961
     29156.79	0.12248	1928114.0	1730342.0	3357686.0	0.108223	-0.662933
     29157.28	0.12709	2006513.0	1800492.0	3488804.0	0.108338	-0.661499
     29157.77	0.14011	2207179.0	1980128.0	3829614.0	0.108554	-0.659603
     29158.26	0.11039	1739505.0	1560883.0	3013667.0	0.108349	-0.657906
     29158.75	0.12629	1993753.0	1789154.0	3447913.0	0.108276	-0.656026
     29159.24	0.12567	1980309.0	1776375.0	3417248.0	0.108678	-0.654261
     29159.73	0.12515	1966115.0	1763735.0	3385043.0	0.108626	-0.651933
     29160.22	0.13090	2070177.0	1856922.0	3556969.0	0.108714	-0.649988
     29160.71	0.12903	2039619.0	1829304.0	3496554.0	0.108827	-0.647842
     29161.19	0.11570	1827439.0	1638864.0	3125908.0	0.108912	-0.645721
     29161.68	0.13302	2098285.0	1881804.0	3580218.0	0.108889	-0.643193
     29162.17	0.12197	1925486.0	1726623.0	3276133.0	0.109011	-0.640496
     29162.66	0.11871	1881252.0	1686981.0	3192787.0	0.108997	-0.637954
     29163.15	0.12621	2001268.0	1794692.0	3387541.0	0.108948	-0.635271
     29163.64	0.11687	1852660.0	1661299.0	3127099.0	0.109023	-0.632506
     29164.13	0.11929	1887984.0	1692923.0	3176667.0	0.109053	-0.629376
     29164.62	0.11560	1830339.0	1640753.0	3069072.0	0.109346	-0.626220
     29165.11	0.12963	2049246.0	1836728.0	3424438.0	0.109486	-0.622952
     29165.60	0.12153	1919414.0	1720732.0	3197128.0	0.109270	-0.619503
     29166.09	0.11723	1857437.0	1664624.0	3080921.0	0.109598	-0.615629
     29166.57	0.12589	1992468.0	1785180.0	3290929.0	0.109855	-0.611651
     29167.06	0.13693	2164421.0	1938687.0	3559876.0	0.110142	-0.607715
     29167.55	0.12837	2031937.0	1820358.0	3327970.0	0.109956	-0.603329
     29168.04	0.13160	2071023.0	1855254.0	3375844.0	0.110021	-0.598624
     29168.53	0.12959	2052095.0	1837934.0	3327889.0	0.110219	-0.593696
     29169.02	0.12562	1987688.0	1779924.0	3206010.0	0.110401	-0.588457
     29169.51	0.11944	1886974.0	1689190.0	3026639.0	0.110725	-0.583204
     29170.00	0.12508	1973382.0	1766644.0	3145265.0	0.110667	-0.576816
     29170.49	0.12185	1922397.0	1720465.0	3044723.0	0.110978	-0.570815
     29170.98	0.12638	2001344.0	1790162.0	3146438.0	0.111513	-0.563965
     29171.47	0.12692	2008789.0	1796689.0	3134457.0	0.111587	-0.556510
     29171.96	0.13549	2139345.0	1913480.0	3311345.0	0.111576	-0.548431
     29172.45	0.11316	1779321.0	1591074.0	2729508.0	0.111823	-0.539712
     29172.94	0.13103	2064634.0	1845572.0	3137677.0	0.112164	-0.530693
     29173.42	0.12994	2047486.0	1829729.0	3082679.0	0.112445	-0.521631
     29173.91	0.12702	2005062.0	1791098.0	2983653.0	0.112846	-0.510320
     29174.40	0.13667	2161650.0	1930341.0	3180039.0	0.113175	-0.499197
     29174.89	0.12250	1930631.0	1723475.0	2801512.0	0.113504	-0.485817
     29175.38	0.13223	2088798.0	1863463.0	2989937.0	0.114152	-0.472816
     29175.87	0.13217	2087667.0	1862333.0	2943752.0	0.114217	-0.457855
     29176.36	0.12710	2009449.0	1791856.0	2785554.0	0.114609	-0.441195
     29176.85	0.13699	2154562.0	1920151.0	2929537.0	0.115184	-0.422441
     29177.34	0.11587	1815758.0	1616753.0	2419045.0	0.116083	-0.402953
     29177.83	0.12565	1981937.0	1763305.0	2578172.0	0.116885	-0.379891
     29178.32	0.12384	1956334.0	1739891.0	2484210.0	0.117250	-0.356132
     29178.81	0.11538	1818253.0	1615418.0	2244115.0	0.118282	-0.328717
     29179.30	0.13265	2091411.0	1856393.0	2496439.0	0.119204	-0.296230
     29179.79	0.13450	2118903.0	1879042.0	2441031.0	0.120136	-0.261658
     29180.28	0.11795	1849711.0	1638762.0	2050942.0	0.121088	-0.224358
     29180.77	0.11894	1872037.0	1656169.0	1985997.0	0.122520	-0.181614
     29181.26	0.11089	1746763.0	1543271.0	1757582.0	0.123860	-0.130035
     29181.75	0.10780	1694909.0	1495035.0	1607371.0	0.125479	-0.0724503
     29182.24	0.12455	1960981.0	1726296.0	1753156.0	0.127467	-0.0154395
     29182.73	0.10613	1673247.0	1470239.0	1391913.0	0.129341	0.0547459
     29183.22	0.12192	1922738.0	1686277.0	1487191.0	0.131227	0.125634
     29183.71	0.10619	1672636.0	1462744.0	1193249.0	0.134087	0.203634
     29184.20	0.13411	2116069.0	1845701.0	1391616.0	0.136701	0.282393
     29184.68	0.11844	1868679.0	1625442.0	1130557.0	0.139452	0.363069
     29185.17	0.12375	1948411.0	1689856.0	1080195.0	0.142371	0.447502
     29185.66	0.12488	1965410.0	1699952.0	1000917.0	0.145101	0.529683
     29186.15	0.12078	1897016.0	1635683.0	892406.0	0.148222	0.605895
     29186.64	0.13142	2072370.0	1782113.0	912431.0	0.150893	0.669443
     29187.13	0.13047	2052268.0	1759704.0	844854.0	0.153800	0.733737
     29187.62	0.14239	2239751.0	1915217.0	872782.0	0.156534	0.785900
     29188.11	0.13249	2088010.0	1780649.0	776228.0	0.159234	0.830287
     29188.60	0.11825	1857976.0	1580401.0	667870.0	0.161809	0.861340
     29189.09	0.12993	2049644.0	1739608.0	717816.0	0.164006	0.885202
     29189.58	0.12835	2026317.0	1716239.0	698259.0	0.166085	0.899300
     29190.07	0.12702	2003902.0	1693306.0	685777.0	0.168413	0.903886
     29190.56	0.12908	2025789.0	1709337.0	693732.0	0.169854	0.901775
     29191.05	0.13500	2124833.0	1789785.0	731858.0	0.171598	0.894264
     29191.54	0.12801	2008404.0	1689806.0	698855.0	0.172727	0.882926
     29192.03	0.13971	2194318.0	1844077.0	774790.0	0.173892	0.867142
     29192.52	0.12065	1885682.0	1583593.0	677490.0	0.174593	0.849057
     29193.01	0.13332	2070813.0	1738351.0	757432.0	0.175004	0.830758
     29193.50	0.13592	2126369.0	1784490.0	791479.0	0.175283	0.812985
     29193.99	0.13666	2143527.0	1798885.0	811163.0	0.175286	0.796453
     29194.48	0.12573	1968636.0	1652924.0	757904.0	0.174795	0.779744
     29194.97	0.13107	2063758.0	1733950.0	807253.0	0.174127	0.764520
     29195.46	0.12935	2029998.0	1706669.0	806163.0	0.173491	0.750013
     29195.95	0.13218	2073193.0	1744863.0	835606.0	0.172414	0.736274
     29196.44	0.11380	1785547.0	1504052.0	728650.0	0.171562	0.724725
     29196.93	0.13194	2068567.0	1745068.0	854612.0	0.170063	0.713901
     29197.42	0.12159	1899977.0	1604302.0	793629.0	0.169153	0.703828
     29197.92	0.13051	2049348.0	1732559.0	863272.0	0.167922	0.696625
     29198.41	0.11870	1865203.0	1578793.0	792051.0	0.166709	0.689790
     29198.90	0.12532	1965185.0	1664616.0	840376.0	0.165992	0.683500
     29199.39	0.12394	1939285.0	1644861.0	834053.0	0.164663	0.679114
     29199.88	0.12227	1911989.0	1623230.0	826484.0	0.163726	0.674993
     29200.37	0.12446	1947921.0	1655746.0	845339.0	0.162511	0.672269
     29200.86	0.12698	1994297.0	1696649.0	867739.0	0.161636	0.670519
     29201.35	0.12428	1949565.0	1659741.0	850181.0	0.160945	0.668968
     29201.84	0.11646	1817867.0	1549047.0	793496.0	0.160024	0.668947
     29202.33	0.11591	1813334.0	1545983.0	791464.0	0.159507	0.669531
     29202.82	0.13320	2093161.0	1786220.0	913594.0	0.158574	0.670471
     29203.31	0.12126	1902936.0	1624440.0	829399.0	0.158235	0.672217
     29203.80	0.12554	1974262.0	1686028.0	858863.0	0.157819	0.674521
     29204.29	0.11236	1759946.0	1503716.0	763746.0	0.157344	0.677459
     29204.78	0.13381	2100274.0	1795431.0	909048.0	0.156823	0.680602
     29205.27	0.11363	1787524.0	1528286.0	771191.0	0.156685	0.683966
     29205.76	0.13439	2108470.0	1803580.0	906971.0	0.156189	0.687418
     29206.25	0.13805	2167071.0	1853464.0	928664.0	0.156320	0.691065
     29206.74	0.10985	1724127.0	1475142.0	736591.0	0.155967	0.694477
     29207.23	0.14143	2220377.0	1899974.0	945864.0	0.155837	0.697497
     29207.72	0.13063	2050211.0	1754419.0	870486.0	0.155805	0.700841
     29208.21	0.12030	1882216.0	1610765.0	797214.0	0.155741	0.703341
     29208.70	0.12323	1929957.0	1651727.0	815865.0	0.155676	0.705328
     29209.19	0.12153	1905170.0	1630487.0	803968.0	0.155693	0.707075
     29209.69	0.11864	1860162.0	1592229.0	784037.0	0.155529	0.708434
     29210.18	0.13174	2064209.0	1766147.0	868849.0	0.155947	0.709386
     29210.67	0.12684	1994993.0	1706832.0	838385.0	0.156002	0.710917
     29211.16	0.12437	1954725.0	1672225.0	821577.0	0.156094	0.710685
     29211.65	0.12127	1903740.0	1628299.0	799835.0	0.156284	0.710886
     29212.14	0.13050	2048638.0	1752404.0	861467.0	0.156187	0.710107
     29212.63	0.13913	2181942.0	1865735.0	918182.0	0.156560	0.709015
     29213.12	0.12835	2013890.0	1721574.0	848484.0	0.156829	0.707543
     29213.61	0.12713	1994984.0	1705582.0	842524.0	0.156730	0.705260
     29214.10	0.12749	1996789.0	1706518.0	844581.0	0.157085	0.703370
     29214.59	0.12935	2029534.0	1733978.0	861018.0	0.157388	0.700058
     29215.08	0.13801	2166785.0	1851152.0	922714.0	0.157436	0.696244
     29215.57	0.12571	1971404.0	1683571.0	842626.0	0.157829	0.692149
     29216.06	0.12492	1957008.0	1671363.0	839593.0	0.157777	0.688477
     29216.56	0.11920	1870688.0	1597175.0	806437.0	0.158070	0.683366
     29217.05	0.12644	1980388.0	1691010.0	858128.0	0.157967	0.678328
     29217.54	0.12894	2018877.0	1723642.0	879139.0	0.158102	0.673252
     29218.03	0.11768	1842881.0	1572718.0	806088.0	0.158525	0.668368
     29218.52	0.12473	1954614.0	1668304.0	858289.0	0.158385	0.664622
     29219.01	0.14532	2278973.0	1944889.0	1004361.0	0.158520	0.660853
     29219.50	0.11524	1806387.0	1540950.0	798795.0	0.158930	0.657050
     29219.99	0.12518	1958972.0	1671462.0	868239.0	0.158721	0.654987
     29220.48	0.10083	1566408.0	1336777.0	695791.0	0.158524	0.652967
     29220.97	0.10889	1707741.0	1457336.0	758788.0	0.158561	0.652643
     29221.47	0.11341	1771392.0	1511931.0	787413.0	0.158378	0.652390
     29221.96	0.11815	1848820.0	1578187.0	820785.0	0.158271	0.653771
     29222.45	0.12051	1881065.0	1605747.0	833642.0	0.158249	0.655540
     29222.94	0.12427	1943871.0	1659434.0	859754.0	0.158205	0.657586
     29223.43	0.11810	1840682.0	1572059.0	811858.0	0.157750	0.660816
     29223.92	0.11707	1815461.0	1550751.0	798174.0	0.157600	0.664168
     29224.41	0.10698	1664614.0	1421861.0	729389.0	0.157627	0.667515
     29224.90	0.13190	2059930.0	1759550.0	899083.0	0.157614	0.671438
     29225.39	0.13696	2136452.0	1825996.0	929039.0	0.157021	0.675730
     29225.89	0.13163	2053718.0	1755104.0	889141.0	0.157124	0.680028
     29226.38	0.13691	2141178.0	1830773.0	923623.0	0.156618	0.684190
     29226.87	0.12531	1944247.0	1662562.0	835094.0	0.156515	0.688571
     29227.36	0.19337	3015534.0	2578810.0	1290646.0	0.156449	0.692185
     29227.85	0.089911	1403062.0	1200358.0	598638.0	0.156037	0.695718
     29228.34	0.11346	1751836.0	1498803.0	744176.0	0.155998	0.700145
     29228.83	0.10904	1698653.0	1453396.0	719094.0	0.155933	0.703666
     29229.32	0.12608	1966148.0	1683250.0	829381.0	0.155350	0.707802
     29229.81	0.12825	2004737.0	1715487.0	842026.0	0.155816	0.711641
     29230.31	0.15011	2336348.0	1999352.0	977168.0	0.155766	0.715920
     29230.80	0.12516	1957832.0	1675761.0	816222.0	0.155570	0.719336
     29231.29	0.16608	2581320.0	2209844.0	1072179.0	0.155379	0.723229
     29231.78	0.11255	1752137.0	1499846.0	724656.0	0.155474	0.727421
     29232.27	0.11279	1762225.0	1508707.0	725790.0	0.155324	0.731748
     29232.76	0.12672	1977111.0	1692726.0	811421.0	0.155296	0.735308
     29233.25	0.13834	2158395.0	1847313.0	882538.0	0.155633	0.738686
     29233.75	0.13714	2136409.0	1828460.0	870110.0	0.155652	0.742610
     29234.24	0.13239	2056706.0	1760124.0	834861.0	0.155721	0.745874
     29234.73	0.14020	2167551.0	1855171.0	877479.0	0.155621	0.748679
     29235.22	0.16519	2570991.0	2199938.0	1038032.0	0.155862	0.751103
     29235.71	0.093605	1453219.0	1243170.0	585134.0	0.156117	0.753579
     29236.20	0.10176	1575935.0	1348084.0	633978.0	0.156164	0.754425
     29236.69	0.12084	1878496.0	1606691.0	754948.0	0.156295	0.755283
     29237.19	0.12372	1928004.0	1649048.0	774342.0	0.156287	0.755940
     29237.68	0.12298	1907748.0	1631672.0	765900.0	0.156318	0.756309
     29238.17	0.13023	2018305.0	1726388.0	810851.0	0.156227	0.755702
     29238.66	0.13752	2144387.0	1834316.0	862209.0	0.156182	0.754929
     29239.15	0.12698	1976670.0	1690665.0	795975.0	0.156292	0.753309
     29239.64	0.11010	1702226.0	1455978.0	686865.0	0.156259	0.751295
     29240.14	0.11723	1814199.0	1551487.0	733694.0	0.156430	0.748877
     29240.63	0.12040	1871141.0	1600297.0	758595.0	0.156359	0.746476
     29241.12	0.11867	1846439.0	1579184.0	751044.0	0.156351	0.743199
     29241.61	0.11740	1816043.0	1552899.0	741233.0	0.156536	0.739564
     29242.10	0.11745	1821112.0	1557767.0	746411.0	0.156194	0.735732
     29242.59	0.13334	2077912.0	1777035.0	854621.0	0.156417	0.732043
     29243.09	0.11441	1778859.0	1521080.0	734491.0	0.156552	0.727998
     29243.58	0.12213	1901919.0	1626581.0	788803.0	0.156383	0.723719
     29244.07	0.12257	1891424.0	1617373.0	787558.0	0.156527	0.719621
     29244.56	0.13062	2030885.0	1736538.0	848870.0	0.156578	0.715743
     29245.05	0.12924	2009135.0	1717343.0	842929.0	0.156926	0.711651
     29245.55	0.12417	1931846.0	1652032.0	814155.0	0.156470	0.707611
     29246.04	0.12953	2008631.0	1717278.0	850035.0	0.156713	0.703218
     29246.53	0.13179	2024055.0	1730919.0	860364.0	0.156450	0.699052
     29247.02	0.12508	1949926.0	1666730.0	831201.0	0.156928	0.695747
     29247.51	0.12298	1898161.0	1622526.0	812152.0	0.156901	0.692052
     29248.00	0.12233	1904423.0	1627448.0	817163.0	0.157166	0.688930
     29248.50	0.12451	1933469.0	1652744.0	832617.0	0.156879	0.685618
     29248.99	0.12023	1869679.0	1598541.0	807770.0	0.156675	0.682569
     29249.48	0.13792	2139765.0	1828145.0	926506.0	0.157394	0.679637
     29249.97	0.13196	2036056.0	1739409.0	883923.0	0.157469	0.676931
     29250.46	0.12436	1925223.0	1644462.0	837615.0	0.157629	0.674610
     29250.96	0.11921	1828073.0	1561402.0	796965.0	0.157678	0.672529
     29251.45	0.13457	2077507.0	1774588.0	906874.0	0.157600	0.671320
     29251.94	0.12267	1898269.0	1620894.0	830055.0	0.157965	0.669241
     29252.43	0.13113	2031006.0	1734607.0	888707.0	0.157750	0.668769
     29252.92	0.12877	1989073.0	1698278.0	870669.0	0.158054	0.668108
     29253.42	0.13703	2113849.0	1804831.0	925966.0	0.158043	0.667385
     29253.91	0.13016	2017708.0	1722366.0	883903.0	0.158263	0.667107
     29254.40	0.13632	2115953.0	1806304.0	926805.0	0.158223	0.667295
     29254.89	0.11085	1704067.0	1454836.0	746197.0	0.158125	0.667659
     29255.39	0.12318	1893031.0	1615742.0	828451.0	0.158385	0.667992
     29255.88	0.12481	1924430.0	1643148.0	841898.0	0.158016	0.668710
     29256.37	0.13285	2054922.0	1754019.0	897303.0	0.158328	0.670271
     29256.86	0.11977	1862443.0	1589682.0	812592.0	0.158355	0.671060
     29257.35	0.13034	2016894.0	1721738.0	878873.0	0.158224	0.672449
     29257.85	0.14746	2279166.0	1945438.0	991420.0	0.158322	0.674104
     29258.34	0.15430	2395448.0	2044775.0	1039935.0	0.158283	0.676130
     29258.83	0.099856	1542369.0	1316682.0	668257.0	0.158205	0.678197
     29259.32	0.11401	1772420.0	1513382.0	765903.0	0.157999	0.681047
     29259.82	0.087194	1353228.0	1155604.0	583455.0	0.157870	0.683411
     29260.31	0.098083	1505433.0	1285838.0	647637.0	0.157670	0.685836
     29260.80	0.13851	2137565.0	1826203.0	917356.0	0.157428	0.688499
     29261.29	0.16109	2493423.0	2130465.0	1066629.0	0.157316	0.691837
     29261.79	0.14728	2283023.0	1950842.0	973598.0	0.157239	0.695018
     29262.28	0.10105	1568701.0	1340571.0	667299.0	0.157152	0.697613
     29262.77	0.077669	1201013.0	1026452.0	509477.0	0.157057	0.700479
     29263.26	0.10601	1631915.0	1394989.0	689387.0	0.156868	0.704839
     29263.75	0.11990	1864354.0	1593966.0	785431.0	0.156689	0.707748
     29264.25	0.12782	1985898.0	1698642.0	833761.0	0.156242	0.711638
     29264.74	0.12968	1987938.0	1700506.0	831809.0	0.156172	0.715078
     29265.23	0.15131	2339694.0	2001594.0	975795.0	0.156076	0.718447
     29265.72	0.13324	2056301.0	1759660.0	855003.0	0.155788	0.721771
     29266.22	0.13266	2041654.0	1747647.0	846470.0	0.155490	0.724951
     29266.71	0.10795	1658978.0	1420056.0	685661.0	0.155505	0.728068
     29267.20	0.12085	1871558.0	1602013.0	771725.0	0.155510	0.730388
     29267.70	0.13779	2138722.0	1831389.0	879696.0	0.155134	0.733254
     29268.19	0.12678	1967830.0	1684825.0	807121.0	0.155270	0.735943
     29268.68	0.13808	2132865.0	1826801.0	873119.0	0.154900	0.738250
     29269.17	0.12493	1939947.0	1662044.0	793132.0	0.154612	0.739814
     29269.67	0.12915	1997105.0	1710733.0	814916.0	0.154777	0.741592
     29270.16	0.14373	2225731.0	1906467.0	907042.0	0.154834	0.742818
     29270.65	0.12035	1861257.0	1594591.0	758201.0	0.154635	0.743424
     29271.14	0.13169	2040123.0	1747734.0	830349.0	0.154690	0.744229
     29271.64	0.13013	2015856.0	1727264.0	820317.0	0.154505	0.744603
     29272.13	0.13862	2142058.0	1835462.0	871542.0	0.154471	0.744787
     29272.62	0.12457	1928088.0	1651877.0	784776.0	0.154617	0.744269
     29273.11	0.12973	1986487.0	1702535.0	809330.0	0.154249	0.743667
     29273.61	0.13046	2003369.0	1717209.0	816674.0	0.154130	0.743216
     29274.10	0.12683	1944284.0	1665988.0	793213.0	0.154475	0.742082
     29274.59	0.12743	1965750.0	1685102.0	803177.0	0.154048	0.741006
     29275.09	0.12793	1963581.0	1683131.0	803222.0	0.154114	0.739780
     29275.58	0.12430	1918752.0	1644619.0	786407.0	0.154166	0.737790
     29276.07	0.12165	1858158.0	1592367.0	762578.0	0.154364	0.736272
     29276.56	0.12433	1920647.0	1646141.0	789580.0	0.154228	0.734688
     29277.06	0.12967	2001429.0	1715568.0	824507.0	0.154117	0.732714
     29277.55	0.12507	1936148.0	1659231.0	798874.0	0.154346	0.730906
     29278.04	0.12610	1932727.0	1656357.0	799555.0	0.154311	0.728321
     29278.54	0.12675	1958301.0	1678532.0	811751.0	0.154158	0.726481
     29279.03	0.12241	1898070.0	1626566.0	788071.0	0.154367	0.724638
     29279.52	0.12303	1903337.0	1630986.0	791634.0	0.154424	0.722841
     29280.02	0.11116	1719513.0	1473789.0	717013.0	0.154204	0.720498
     29280.51	0.12483	1938479.0	1661198.0	809899.0	0.154365	0.718385
     29281.00	0.12095	1871059.0	1603353.0	783083.0	0.154408	0.716614
     29281.49	0.11763	1784189.0	1529425.0	748383.0	0.154072	0.714732
     29281.99	0.11538	1773534.0	1520218.0	744752.0	0.154120	0.713558
     29282.48	0.12380	1901019.0	1629871.0	800060.0	0.153889	0.711569
     29282.97	0.12732	1950889.0	1671823.0	821774.0	0.154371	0.710205
     29283.47	0.13118	2023975.0	1735201.0	854253.0	0.153940	0.708651
     29283.96	0.13861	2137394.0	1831860.0	903194.0	0.154255	0.707150
     29284.45	0.14191	2182625.0	1871467.0	924247.0	0.153806	0.705499
     29284.95	0.13254	2054877.0	1761666.0	870701.0	0.153956	0.704717
     29285.44	0.10653	1641501.0	1407187.0	696260.0	0.154018	0.703625
     29285.93	0.12130	1867560.0	1601082.0	793051.0	0.153953	0.702547
     29286.43	0.11914	1824471.0	1564780.0	775663.0	0.153545	0.701782
     29286.92	0.12776	1941461.0	1665156.0	826591.0	0.153522	0.700364
     29287.41	0.12326	1893248.0	1623689.0	806154.0	0.153593	0.700181
     29287.91	0.14251	2199943.0	1886588.0	937759.0	0.153662	0.699032
     29288.40	0.13573	2096808.0	1798046.0	893784.0	0.153716	0.698992
     29288.89	0.10964	1684220.0	1444279.0	718530.0	0.153692	0.698158
     29289.39	0.11378	1752962.0	1503168.0	748292.0	0.153732	0.697537
     29289.88	0.13562	2098556.0	1799558.0	896181.0	0.153708	0.697154
     29290.37	0.13945	2144613.0	1839527.0	916234.0	0.153451	0.696992
     29290.87	0.11784	1815220.0	1556717.0	775521.0	0.153628	0.696799
     29291.36	0.13364	2061306.0	1767896.0	880852.0	0.153550	0.696656
     29291.85	0.14317	2211877.0	1896778.0	945176.0	0.153685	0.696541
     29292.35	0.12679	1949289.0	1671654.0	833132.0	0.153651	0.696377
     29292.84	0.11836	1824409.0	1564855.0	779806.0	0.153463	0.696503
     29293.33	0.12297	1895906.0	1625603.0	810373.0	0.153818	0.696139
     29293.83	0.12827	1969830.0	1689789.0	841822.0	0.153344	0.696790
     29294.32	0.12066	1853721.0	1589862.0	792165.0	0.153548	0.696633
     29294.81	0.12412	1912920.0	1640736.0	817322.0	0.153486	0.696867
     29295.31	0.14725	2269205.0	1946191.0	969093.0	0.153555	0.697269
     29295.80	0.12169	1876613.0	1609627.0	801125.0	0.153466	0.697741
     29296.29	0.11966	1847669.0	1584707.0	788338.0	0.153525	0.698228
     29296.79	0.10124	1559166.0	1337071.0	664978.0	0.153670	0.698483
     29297.28	0.12197	1882262.0	1614126.0	802267.0	0.153681	0.699107
     29297.77	0.11585	1777169.0	1524084.0	756955.0	0.153628	0.699845
     29298.27	0.11822	1824686.0	1564829.0	776911.0	0.153631	0.700206
     29298.76	0.11370	1755214.0	1505380.0	746909.0	0.153545	0.700857
     29299.26	0.15477	2390615.0	2049906.0	1016478.0	0.153757	0.701450
     29299.75	0.14295	2207137.0	1892787.0	937842.0	0.153646	0.702224
     29300.24	0.10358	1601545.0	1373389.0	679837.0	0.153687	0.703184
     29300.74	0.085299	1317909.0	1130161.0	558930.0	0.153686	0.704091
     29301.23	0.10786	1660049.0	1423739.0	703718.0	0.153561	0.704664
     29301.72	0.12919	1993478.0	1709325.0	844049.0	0.153782	0.705643
     29302.22	0.11781	1808900.0	1551514.0	765513.0	0.153488	0.706440
     29302.71	0.16199	2494015.0	2138538.0	1054343.0	0.153771	0.707205
     29303.21	0.11836	1822355.0	1563051.0	770010.0	0.153490	0.707991
     29303.70	0.14244	2197918.0	1885010.0	927480.0	0.153577	0.709217
     29304.19	0.098785	1519869.0	1302912.0	640700.0	0.154022	0.709796
     29304.69	0.13149	2024051.0	1735457.0	852557.0	0.153830	0.710786
     29305.18	0.13969	2146429.0	1840794.0	903055.0	0.153609	0.712169
     29305.67	0.11806	1805494.0	1548489.0	759583.0	0.153555	0.712265
     29306.17	0.12713	1957627.0	1678980.0	822916.0	0.153547	0.713088
     29306.66	0.12448	1902749.0	1631940.0	798927.0	0.153530	0.714255
     29307.16	0.18192	2758127.0	2365813.0	1157494.0	0.153430	0.714864
     29307.65	0.12020	1829384.0	1569590.0	767373.0	0.153165	0.715597
     29308.14	0.10380	1589713.0	1363506.0	666015.0	0.153494	0.716502
     29308.64	0.11959	1830632.0	1570196.0	766808.0	0.153461	0.716719
     29309.13	0.13774	2104747.0	1805386.0	881143.0	0.153421	0.717310
     29309.63	0.13096	2008298.0	1722983.0	840448.0	0.153231	0.717877
     29310.12	0.13503	2076904.0	1781623.0	868529.0	0.153354	0.718479
     29310.61	0.13332	2043782.0	1753324.0	854545.0	0.153289	0.718700
     29311.11	0.12404	1889533.0	1620745.0	789502.0	0.153444	0.719239
     29311.60	0.14743	2244545.0	1925329.0	937550.0	0.153406	0.719582
     29312.10	0.11163	1701995.0	1459971.0	710886.0	0.153385	0.719660
     29312.59	0.13224	2026844.0	1738677.0	845768.0	0.153355	0.720635
     29313.08	0.12349	1901261.0	1630867.0	793527.0	0.153406	0.720379
     29313.58	0.12306	1891754.0	1622898.0	789454.0	0.153291	0.720627
     29314.07	0.12969	1996774.0	1712748.0	832538.0	0.153434	0.721376
     29314.57	0.13345	2051379.0	1760140.0	855467.0	0.153119	0.721501
     29315.06	0.12087	1863650.0	1598759.0	777082.0	0.153309	0.721437
     29315.56	0.11899	1809657.0	1552534.0	754698.0	0.153249	0.721326
     29316.05	0.12302	1875625.0	1608966.0	782131.0	0.153350	0.721325
     29316.54	0.12000	1832803.0	1572620.0	764334.0	0.153103	0.721493
     29317.04	0.12237	1883076.0	1615600.0	784977.0	0.153200	0.721807
     29317.53	0.11928	1831337.0	1571088.0	763518.0	0.153278	0.721587
     29318.03	0.12806	1974186.0	1693423.0	823005.0	0.153404	0.721545
     29318.52	0.11942	1834694.0	1573822.0	764951.0	0.153371	0.721451
     29319.02	0.12150	1871955.0	1606094.0	781276.0	0.153178	0.720632
     29319.51	0.13010	2000307.0	1715740.0	834011.0	0.153456	0.721353
     29320.00	0.11468	1767990.0	1516491.0	737152.0	0.153444	0.721360
     29320.50	0.11007	1695071.0	1453896.0	707224.0	0.153478	0.720655
     29320.99	0.12604	1940245.0	1664438.0	809755.0	0.153327	0.720511
     29321.49	0.11791	1820648.0	1561634.0	759847.0	0.153460	0.720371
     29321.98	0.13660	2107294.0	1807867.0	879578.0	0.153257	0.720461
     29322.48	0.13005	2006250.0	1720414.0	837591.0	0.153702	0.719790
     29322.97	0.15203	2332892.0	2000980.0	974290.0	0.153472	0.719683
     29323.47	0.10841	1668247.0	1430849.0	697096.0	0.153505	0.719100
     29323.96	0.13606	2087177.0	1790402.0	872680.0	0.153372	0.718627
     29324.45	0.12711	1954979.0	1676841.0	817625.0	0.153468	0.718263
     29324.95	0.13532	2085757.0	1789322.0	872624.0	0.153295	0.718087
     29325.44	0.10723	1653761.0	1418397.0	692246.0	0.153525	0.717341
     29325.94	0.13198	2033066.0	1744182.0	851763.0	0.153259	0.716733
     29326.43	0.12024	1849894.0	1586998.0	775284.0	0.153284	0.716370
     29326.93	0.14184	2187988.0	1877192.0	917383.0	0.153205	0.716007
     29327.42	0.11505	1772569.0	1520734.0	743488.0	0.153237	0.715596
     29327.92	0.12129	1862723.0	1598192.0	782160.0	0.153166	0.714569
     29328.41	0.12644	1948299.0	1671414.0	818247.0	0.153287	0.714261
     29328.91	0.13952	2147237.0	1841921.0	902267.0	0.153373	0.713654
     29329.40	0.12503	1914441.0	1642476.0	804866.0	0.153221	0.713284
     29329.89	0.13554	2079634.0	1784501.0	874868.0	0.153053	0.712821
     29330.39	0.14497	2233258.0	1916580.0	940413.0	0.152919	0.711978
     29330.88	0.11530	1776593.0	1524759.0	748258.0	0.152861	0.711844
     29331.38	0.13080	2015578.0	1729658.0	849214.0	0.152982	0.711368
     29331.87	0.11072	1702752.0	1461514.0	717915.0	0.152773	0.710877
     29332.37	0.12923	1987318.0	1705652.0	838379.0	0.152839	0.710232
     29332.86	0.11932	1836878.0	1576574.0	775438.0	0.152813	0.709581
     29333.36	0.12915	1985454.0	1703926.0	837917.0	0.152913	0.709771
     29333.85	0.11939	1837370.0	1577051.0	776230.0	0.152779	0.708863
     29334.35	0.12952	1994361.0	1712245.0	842894.0	0.152518	0.708719
     29334.84	0.12666	1948639.0	1673078.0	823732.0	0.152466	0.708575
     29335.34	0.11046	1695652.0	1455829.0	717462.0	0.152492	0.707611
     29335.83	0.13194	2029397.0	1742387.0	858941.0	0.152483	0.707311
     29336.33	0.11451	1762537.0	1513658.0	746312.0	0.152225	0.707141
     29336.82	0.11478	1763436.0	1514565.0	746874.0	0.152136	0.706987
     29337.32	0.11588	1780991.0	1529663.0	755130.0	0.152123	0.705913
     29337.81	0.11835	1821145.0	1564210.0	772374.0	0.152085	0.705667
     29338.31	0.13184	2030818.0	1744653.0	861384.0	0.151883	0.705771
     29338.80	0.10973	1683489.0	1446182.0	713874.0	0.151941	0.705976
     29339.30	0.13233	2034364.0	1747686.0	863585.0	0.151891	0.704956
     29339.79	0.094427	1450754.0	1246995.0	616287.0	0.151347	0.704779
     29340.29	0.12360	1899788.0	1632897.0	807098.0	0.151387	0.704666
     29340.78	0.12038	1849242.0	1588919.0	785005.0	0.151722	0.705119
     29341.28	0.13477	2070870.0	1779602.0	880428.0	0.151579	0.703737
     29341.77	0.13459	2067071.0	1776220.0	878824.0	0.151645	0.703658
     29342.27	0.15675	2408819.0	2070070.0	1023853.0	0.151554	0.704009
     29342.76	0.14685	2257244.0	1940364.0	960271.0	0.151269	0.703415
     29343.26	0.11759	1807409.0	1553663.0	769166.0	0.151279	0.703064
     29343.75	0.089653	1376198.0	1182947.0	585599.0	0.151316	0.703129
     29344.25	0.13774	2117241.0	1820039.0	900834.0	0.151256	0.703292
     29344.74	0.13151	2018994.0	1735522.0	859127.0	0.151291	0.703147
     29345.24	0.12711	1951554.0	1677281.0	830662.0	0.151452	0.702706
     29345.73	0.13147	2015900.0	1733216.0	858091.0	0.151087	0.703024
     29346.23	0.12471	1915845.0	1647532.0	816050.0	0.150880	0.702558
     29346.72	0.14842	2276206.0	1957287.0	969371.0	0.150951	0.702667
     29347.22	0.11526	1771015.0	1523034.0	754179.0	0.150848	0.702830
     29347.72	0.13508	2071485.0	1781388.0	881824.0	0.150873	0.703156
     29348.21	0.12605	1938335.0	1667123.0	825537.0	0.150730	0.702821
     29348.71	0.12634	1942596.0	1670640.0	826965.0	0.150818	0.703200
     29349.20	0.13939	2141538.0	1841937.0	911736.0	0.150707	0.703223
     29349.70	0.13975	2142322.0	1842174.0	912133.0	0.150944	0.702916
     29350.19	0.13281	2037282.0	1752058.0	867073.0	0.150825	0.703423
     29350.69	0.13289	2038324.0	1753201.0	867863.0	0.150685	0.703165
     29351.18	0.11824	1812507.0	1559040.0	771491.0	0.150641	0.703501
     29351.68	0.11960	1831737.0	1575238.0	779535.0	0.150858	0.703464
     29352.17	0.13248	2032733.0	1748846.0	864894.0	0.150425	0.704104
     29352.67	0.12302	1886351.0	1622444.0	802756.0	0.150711	0.703638
     29353.16	0.12551	1927798.0	1658174.0	819902.0	0.150661	0.704287
     29353.66	0.13440	2060289.0	1772267.0	876123.0	0.150587	0.704508
     29354.16	0.12133	1860933.0	1600909.0	791462.0	0.150506	0.704445
     29354.65	0.13078	2003101.0	1723114.0	851555.0	0.150563	0.704824
     29355.15	0.11759	1805533.0	1552987.0	767475.0	0.150676	0.704830
     29355.64	0.11729	1789742.0	1539745.0	760613.0	0.150455	0.705247
     29356.14	0.13339	2043996.0	1758040.0	868255.0	0.150707	0.705469
     29356.63	0.12461	1905405.0	1639264.0	809515.0	0.150447	0.705567
     29357.13	0.12025	1840244.0	1582966.0	781347.0	0.150598	0.706036
     29357.63	0.12429	1906974.0	1640790.0	809820.0	0.150340	0.706121
     29358.12	0.12263	1876975.0	1615049.0	797094.0	0.150296	0.706148
     29358.62	0.11582	1774947.0	1527596.0	753394.0	0.150075	0.706862
     29359.11	0.12164	1864694.0	1604825.0	791576.0	0.150082	0.706744
     29359.61	0.11431	1751802.0	1507485.0	743177.0	0.150202	0.707264
     29360.10	0.13056	2001891.0	1722606.0	849168.0	0.150254	0.707336
     29360.60	0.11388	1741017.0	1498024.0	738303.0	0.150323	0.707548
     29361.09	0.13005	1990707.0	1713175.0	844188.0	0.150141	0.707728
     29361.59	0.13314	2039010.0	1754552.0	864321.0	0.150251	0.708025
     29362.09	0.11870	1815924.0	1562812.0	769849.0	0.150108	0.708048
     29362.58	0.13366	2042035.0	1757346.0	865284.0	0.150142	0.708502
     29363.08	0.12699	1939942.0	1670071.0	822313.0	0.149792	0.708500
     29363.57	0.12270	1874017.0	1612839.0	793938.0	0.150088	0.708746
     29364.07	0.12198	1861480.0	1602326.0	788778.0	0.149916	0.708727
     29364.57	0.13675	2092694.0	1801164.0	886650.0	0.150019	0.708738
     29365.06	0.12087	1841872.0	1585289.0	779960.0	0.150016	0.709279
     29365.56	0.12847	1961213.0	1688076.0	830648.0	0.149974	0.709139
     29366.05	0.12004	1839558.0	1583832.0	779146.0	0.149678	0.709404
     29366.55	0.13171	2015496.0	1735317.0	853977.0	0.149675	0.709041
     29367.05	0.12323	1889180.0	1625851.0	799976.0	0.150112	0.709205
     29367.54	0.12537	1921894.0	1654439.0	813856.0	0.149849	0.709434
     29368.04	0.13029	1990459.0	1713880.0	843263.0	0.149605	0.709236
     29368.53	0.12654	1935152.0	1666575.0	819731.0	0.149415	0.709550
     29369.03	0.13156	2013273.0	1733783.0	853005.0	0.149456	0.709296
     29369.53	0.12501	1910409.0	1644892.0	809411.0	0.149643	0.709123
     29370.02	0.13089	1995080.0	1717919.0	845564.0	0.149570	0.708865
     29370.52	0.13349	2016287.0	1735905.0	854378.0	0.149729	0.708910
     29371.01	0.12783	1930427.0	1662494.0	818264.0	0.149422	0.708889
     29371.51	0.12742	1941341.0	1671719.0	822809.0	0.149527	0.708884
     29372.01	0.13071	1991823.0	1715158.0	844616.0	0.149545	0.708378
     29372.50	0.12461	1899078.0	1635619.0	805186.0	0.149347	0.708703
     29373.00	0.12301	1872465.0	1612576.0	794297.0	0.149423	0.708131
     29373.49	0.12830	1926115.0	1658695.0	817289.0	0.149474	0.707794
     29373.99	0.12449	1882813.0	1621073.0	799142.0	0.149679	0.707305
     29374.49	0.13095	1989391.0	1713475.0	844784.0	0.149305	0.707198
     29374.98	0.11990	1821087.0	1568458.0	773349.0	0.149341	0.707118
     29375.48	0.12524	1909720.0	1645166.0	811665.0	0.149115	0.706509
     29375.98	0.12358	1884812.0	1623506.0	801127.0	0.149240	0.706324
     29376.47	0.10619	1622285.0	1396913.0	689636.0	0.149571	0.705856
     29376.97	0.13061	1980192.0	1705327.0	841976.0	0.149437	0.705761
     29377.46	0.11581	1763081.0	1518282.0	750162.0	0.149483	0.705046
     29377.96	0.11732	1789195.0	1540595.0	761117.0	0.149597	0.705137
     29378.46	0.12161	1854156.0	1597100.0	789453.0	0.149240	0.704604
     29378.95	0.12463	1899090.0	1635531.0	809108.0	0.149407	0.703790
     29379.45	0.10209	1553768.0	1337928.0	662441.0	0.149561	0.702946
     29379.95	0.12280	1846500.0	1590503.0	787603.0	0.149242	0.702811
     29380.44	0.11784	1793324.0	1544802.0	764638.0	0.149175	0.703249
     29380.94	0.11793	1793969.0	1545189.0	765795.0	0.149284	0.701987
     29381.44	0.12183	1855263.0	1598095.0	792232.0	0.149214	0.701713
     29381.93	0.13171	2008056.0	1729795.0	858005.0	0.149164	0.701148
     29382.43	0.13959	2131065.0	1835490.0	910951.0	0.149310	0.700578
     29382.93	0.14647	2228017.0	1918956.0	952876.0	0.149331	0.700052
     29383.42	0.11598	1766237.0	1521310.0	755681.0	0.149279	0.699708
     29383.92	0.11531	1759322.0	1515508.0	753065.0	0.149178	0.699354
     29384.41	0.12465	1899033.0	1635606.0	813340.0	0.149331	0.698619
     29384.91	0.13012	1985344.0	1710209.0	850692.0	0.149177	0.698321
     29385.41	0.13698	2090727.0	1800892.0	896259.0	0.149230	0.697808
     29385.90	0.12784	1951514.0	1681458.0	837223.0	0.148944	0.697326
     29386.40	0.12945	1976608.0	1702724.0	847969.0	0.149153	0.697141
     29386.90	0.12739	1944530.0	1674761.0	834545.0	0.149350	0.696539
     29387.39	0.13136	2007371.0	1728931.0	862190.0	0.149323	0.695783
     29387.89	0.12814	1950833.0	1680358.0	838148.0	0.149250	0.695567
     29388.39	0.12771	1946525.0	1677241.0	837062.0	0.148896	0.695007
     29388.88	0.13506	2062638.0	1777074.0	887241.0	0.149018	0.694607
     29389.38	0.13561	2072353.0	1785342.0	892089.0	0.149075	0.693799
     29389.88	0.13779	2103650.0	1812470.0	905649.0	0.148983	0.693794
     29390.37	0.13231	2019274.0	1739671.0	869976.0	0.149042	0.692986
     29390.87	0.13708	2082520.0	1794141.0	897589.0	0.149052	0.692569
     29391.37	0.13270	2016547.0	1737130.0	869607.0	0.149152	0.691948
     29391.87	0.11440	1742231.0	1501655.0	751952.0	0.148599	0.691651
     29392.36	0.12186	1857163.0	1600464.0	801987.0	0.148756	0.690956
     29392.86	0.13524	2062501.0	1777196.0	890412.0	0.148882	0.691108
     29393.36	0.13204	2007591.0	1730465.0	867558.0	0.148545	0.690463
     29393.85	0.11375	1734885.0	1495186.0	749660.0	0.148691	0.690386
     29394.35	0.13128	1999851.0	1723701.0	864553.0	0.148599	0.690016
     29394.85	0.11728	1787628.0	1540805.0	773300.0	0.148585	0.689393
     29395.34	0.13691	2084031.0	1796200.0	901635.0	0.148631	0.689219
     29395.84	0.11395	1736675.0	1497297.0	751959.0	0.148311	0.688735
     29396.34	0.13102	1992722.0	1717994.0	863280.0	0.148344	0.688174
     29396.83	0.12116	1843525.0	1589002.0	798597.0	0.148573	0.688005
     29397.33	0.13184	2009089.0	1731597.0	870521.0	0.148637	0.687708
     29397.83	0.11933	1813427.0	1563343.0	786470.0	0.148392	0.687027
     29398.33	0.12155	1848238.0	1593380.0	801484.0	0.148375	0.687148
     29398.82	0.12224	1860956.0	1604461.0	807243.0	0.148302	0.686918
     29399.32	0.12722	1936321.0	1669470.0	840078.0	0.148284	0.686767
     29399.82	0.11095	1683407.0	1451256.0	730605.0	0.148390	0.686312
     29400.31	0.12342	1880640.0	1621559.0	816224.0	0.148224	0.686454
     29400.81	0.11994	1817444.0	1566940.0	788588.0	0.148306	0.686636
     29401.31	0.11510	1749479.0	1508398.0	759534.0	0.148270	0.686098
     29401.80	0.12284	1869570.0	1611954.0	811514.0	0.148261	0.686301
     29402.30	0.13009	1977763.0	1705872.0	859277.0	0.147890	0.685740
     29402.80	0.13008	1980894.0	1708333.0	860821.0	0.148030	0.685387
     29403.30	0.12271	1855851.0	1600755.0	806349.0	0.147868	0.685714
     29403.79	0.13247	2013009.0	1735949.0	874684.0	0.148076	0.685447
     29404.29	0.13609	2067910.0	1783400.0	898629.0	0.148017	0.685407
     29404.79	0.11603	1764569.0	1521887.0	767043.0	0.147955	0.685163
     29405.29	0.12970	1973374.0	1702243.0	857489.0	0.147798	0.685694
     29405.78	0.12081	1830572.0	1579036.0	795975.0	0.147814	0.685002
     29406.28	0.12864	1953085.0	1684705.0	849681.0	0.147820	0.684485
     29406.78	0.11701	1778825.0	1534529.0	773706.0	0.147730	0.684787
     29407.27	0.13182	1996566.0	1722340.0	868286.0	0.147745	0.684918
     29407.77	0.12109	1840313.0	1587543.0	800003.0	0.147748	0.685327
     29408.27	0.12784	1941088.0	1674910.0	844203.0	0.147489	0.685122
     29408.77	0.11875	1803508.0	1556390.0	784490.0	0.147365	0.685090
     29409.26	0.13714	2085168.0	1799078.0	906671.0	0.147575	0.685250
     29409.76	0.13364	2028967.0	1750777.0	882096.0	0.147467	0.685514
     29410.26	0.12509	1901090.0	1640662.0	826824.0	0.147328	0.685263
     29410.76	0.13419	2033875.0	1755077.0	884366.0	0.147430	0.685397
     29411.25	0.13165	1986636.0	1714620.0	864011.0	0.147251	0.685361
     29411.75	0.12903	1957811.0	1689539.0	851425.0	0.147371	0.685300
     29412.25	0.12688	1926528.0	1662759.0	837813.0	0.147241	0.685439
     29412.75	0.12054	1831334.0	1580747.0	796210.0	0.147147	0.685790
     29413.24	0.12683	1923362.0	1659951.0	836503.0	0.147287	0.685313
     29413.74	0.13209	2000013.0	1726106.0	869259.0	0.147286	0.685982
     29414.24	0.12422	1888620.0	1630562.0	820980.0	0.146922	0.686181
     29414.74	0.12619	1911794.0	1650935.0	831163.0	0.146700	0.686271
     29415.23	0.13070	1982693.0	1711838.0	861683.0	0.146888	0.686435
     29415.73	0.13939	2115769.0	1826667.0	919542.0	0.146925	0.686373
     29416.23	0.11640	1767560.0	1526488.0	768431.0	0.146630	0.686374
     29416.73	0.11452	1736185.0	1499901.0	754930.0	0.146291	0.686529
     29417.22	0.12930	1961944.0	1694209.0	852780.0	0.146720	0.686470
     29417.72	0.11515	1743282.0	1505408.0	757369.0	0.146706	0.686969
     29418.22	0.12008	1823977.0	1575322.0	792512.0	0.146560	0.687007
     29418.72	0.10891	1650656.0	1425735.0	717247.0	0.146485	0.687022
     29419.22	0.11725	1770384.0	1529350.0	768998.0	0.146354	0.687510
     29419.71	0.12426	1886199.0	1628913.0	819294.0	0.146651	0.687225
     29420.21	0.10292	1558342.0	1345949.0	676874.0	0.146523	0.687369
     29420.71	0.10896	1642768.0	1419260.0	713583.0	0.146247	0.687592
     29421.21	0.12821	1939093.0	1675351.0	842216.0	0.146198	0.687741
     29421.70	0.12388	1877782.0	1622205.0	815403.0	0.146305	0.687859
     29422.20	0.12753	1930694.0	1668424.0	838675.0	0.146000	0.687811
     29422.70	0.12358	1874215.0	1619460.0	813940.0	0.146097	0.687961
     29423.20	0.13138	1993544.0	1722588.0	866029.0	0.146086	0.687665
     29423.70	0.13681	2065117.0	1784071.0	896733.0	0.146289	0.687895
     29424.19	0.12244	1849444.0	1598055.0	803199.0	0.146098	0.687940
     29424.69	0.11870	1796372.0	1552328.0	780092.0	0.146013	0.688099
     29425.19	0.13368	2016647.0	1742604.0	875908.0	0.146056	0.687875
     29425.69	0.13371	2020849.0	1746042.0	877677.0	0.146166	0.687828
     29426.19	0.13390	2026824.0	1751683.0	879911.0	0.145893	0.688512
     29426.68	0.12586	1903307.0	1645044.0	826686.0	0.145826	0.688097
     29427.18	0.12907	1956043.0	1690683.0	849810.0	0.145791	0.687875
     29427.68	0.14136	2136377.0	1846461.0	928320.0	0.145841	0.687650
     29428.18	0.11495	1734562.0	1499449.0	753801.0	0.145657	0.687725
     29428.68	0.12667	1913411.0	1654097.0	831256.0	0.145632	0.688073
     29429.17	0.13295	2008272.0	1735926.0	872534.0	0.145734	0.687895
     29429.67	0.12598	1909961.0	1650890.0	829991.0	0.145768	0.687655
     29430.17	0.13770	2083486.0	1801061.0	905234.0	0.145667	0.687938
     29430.67	0.13057	1976995.0	1709131.0	859193.0	0.145593	0.687747
     29431.17	0.13939	2105277.0	1819669.0	914993.0	0.145792	0.687493
     29431.66	0.13117	1978003.0	1710367.0	860204.0	0.145380	0.687294
     29432.16	0.12382	1878437.0	1623601.0	816547.0	0.145794	0.687317
     29432.66	0.13094	1980936.0	1712724.0	861105.0	0.145484	0.687624
     29433.16	0.12354	1870227.0	1617098.0	813292.0	0.145427	0.687298
     29433.66	0.12616	1910690.0	1652248.0	831266.0	0.145328	0.686942
     29434.16	0.12776	1927150.0	1666079.0	838450.0	0.145569	0.686673
     29434.65	0.13060	1974312.0	1707096.0	859381.0	0.145426	0.686337
     29435.15	0.12118	1830660.0	1582785.0	796651.0	0.145491	0.686525
     29435.65	0.12856	1943789.0	1680934.0	846477.0	0.145290	0.686022
     29436.15	0.11823	1786593.0	1544824.0	778279.0	0.145400	0.685580
     29436.65	0.12369	1864073.0	1612381.0	812265.0	0.145052	0.685641
     29437.15	0.12434	1873961.0	1620461.0	816545.0	0.145344	0.685384
     29437.64	0.12342	1868778.0	1616323.0	814651.0	0.145131	0.685149
     29438.14	0.12927	1953185.0	1688690.0	851263.0	0.145508	0.684987
     29438.64	0.11408	1716219.0	1484192.0	748446.0	0.145253	0.684627
     29439.14	0.11498	1724124.0	1491456.0	752279.0	0.144966	0.684401
     29439.64	0.12609	1904045.0	1646787.0	830962.0	0.145154	0.683997
     29440.14	0.12301	1860911.0	1609425.0	812385.0	0.145189	0.683658
     29440.63	0.12002	1811296.0	1566768.0	790879.0	0.145028	0.683625
     29441.13	0.11864	1788703.0	1547415.0	781354.0	0.144905	0.683313
     29441.63	0.12034	1819186.0	1573117.0	794312.0	0.145330	0.683338
     29442.13	0.12542	1891131.0	1635831.0	826723.0	0.145024	0.682437
     29442.63	0.13435	2027753.0	1753551.0	886544.0	0.145285	0.682067
     29443.13	0.12791	1928431.0	1667803.0	843485.0	0.145200	0.681720
     29443.63	0.12634	1894266.0	1638878.0	828575.0	0.144820	0.682060
     29444.12	0.11869	1791908.0	1550195.0	784313.0	0.144900	0.681328
     29444.62	0.13607	2051236.0	1774562.0	898343.0	0.144889	0.680757
     29445.12	0.12575	1898909.0	1642588.0	831908.0	0.145006	0.680306
     29445.62	0.13457	2029336.0	1754996.0	889105.0	0.145242	0.680007
     29446.12	0.11834	1777084.0	1537290.0	779258.0	0.144953	0.679434
     29446.62	0.12543	1876651.0	1623146.0	822924.0	0.145123	0.679258
     29447.12	0.12526	1887586.0	1632656.0	828050.0	0.145091	0.678890
     29447.62	0.11707	1767044.0	1528441.0	775733.0	0.145060	0.678195
     29448.11	0.12617	1905132.0	1648160.0	836212.0	0.144892	0.678533
     29448.61	0.13069	1968692.0	1702922.0	864870.0	0.145024	0.677522
     29449.11	0.12700	1916039.0	1657094.0	841907.0	0.145195	0.677151
     29449.61	0.13033	1969619.0	1703916.0	865595.0	0.144911	0.677267
     29450.11	0.12531	1893387.0	1637878.0	833000.0	0.144966	0.676123
     29450.61	0.13458	2021019.0	1748616.0	889132.0	0.144777	0.676334
     29451.11	0.13264	1995230.0	1726093.0	877884.0	0.144899	0.676101
     29451.61	0.12686	1909581.0	1652074.0	840498.0	0.144852	0.675792
     29452.10	0.12612	1902013.0	1645636.0	837953.0	0.144786	0.674920
     29452.60	0.13560	2046053.0	1769758.0	901427.0	0.145070	0.674619
     29453.10	0.12396	1866648.0	1615202.0	822970.0	0.144684	0.674296
     29453.60	0.12573	1890912.0	1636158.0	834049.0	0.144708	0.673814
     29454.10	0.12156	1831083.0	1584034.0	807973.0	0.144933	0.673201
     29454.60	0.13291	2002312.0	1732705.0	883986.0	0.144619	0.672998
     29455.10	0.13128	1978334.0	1711667.0	873803.0	0.144787	0.672368
     29455.60	0.11709	1766166.0	1528224.0	780127.0	0.144705	0.672405
     29456.10	0.11483	1729219.0	1496107.0	764265.0	0.144803	0.671707
     29456.59	0.13296	2000334.0	1730842.0	884400.0	0.144706	0.671454
     29457.09	0.11355	1706119.0	1476434.0	755186.0	0.144591	0.670421
     29457.59	0.11489	1727895.0	1495323.0	764478.0	0.144562	0.670904
     29458.09	0.12434	1873367.0	1621507.0	829993.0	0.144381	0.669694
     29458.59	0.12008	1810405.0	1566708.0	801690.0	0.144574	0.670010
     29459.09	0.12576	1895237.0	1639942.0	839920.0	0.144683	0.669110
     29459.59	0.10147	1528747.0	1323168.0	677370.0	0.144420	0.669566
     29460.09	0.11657	1756110.0	1520168.0	778953.0	0.144280	0.668625
     29460.59	0.11312	1698411.0	1470025.0	753169.0	0.144414	0.668745
     29461.09	0.11483	1732015.0	1498870.0	768632.0	0.144574	0.667854
     29461.59	0.12824	1928962.0	1669455.0	856342.0	0.144485	0.667583
     29462.09	0.12586	1896186.0	1641405.0	842140.0	0.144292	0.667362
     29462.58	0.13095	1962527.0	1698195.0	871645.0	0.144667	0.666939
     29463.08	0.15310	2300724.0	1991355.0	1022365.0	0.144409	0.666697
     29463.58	0.11427	1718419.0	1487875.0	764131.0	0.144056	0.666365
     29464.08	0.12975	1949728.0	1687809.0	866833.0	0.144259	0.666340
     29464.58	0.12190	1832833.0	1586923.0	815654.0	0.144066	0.665562
     29465.08	0.12626	1903010.0	1647601.0	846787.0	0.144117	0.665626
     29465.58	0.13542	2036168.0	1763251.0	906525.0	0.143910	0.665296
     29466.08	0.13332	2000101.0	1732088.0	890756.0	0.143870	0.665012
     29466.58	0.13018	1959096.0	1696487.0	872786.0	0.143923	0.664625
     29467.08	0.17466	2626094.0	2274639.0	1170202.0	0.143676	0.664645
     29467.58	0.097703	1464725.0	1268468.0	653109.0	0.143858	0.663821
     29468.08	0.10597	1594035.0	1380401.0	711038.0	0.143895	0.663403
     29468.58	0.13657	2044377.0	1770584.0	911838.0	0.143784	0.663602
     29469.08	0.12528	1879792.0	1628144.0	838649.0	0.143720	0.663404
     29469.58	0.13240	1969145.0	1705705.0	878753.0	0.143621	0.663230
     29470.07	0.13571	2031975.0	1759991.0	907101.0	0.143700	0.662810
     29470.57	0.14245	2133930.0	1848572.0	952786.0	0.143552	0.662778
     29471.07	0.13487	2009715.0	1740972.0	897296.0	0.143549	0.662813
     29471.57	0.12065	1806705.0	1565302.0	807443.0	0.143426	0.661962
     29472.07	0.12641	1890238.0	1637894.0	844687.0	0.143291	0.662200
     29472.57	0.12939	1936155.0	1677412.0	865370.0	0.143452	0.661850
     29473.07	0.13174	1979159.0	1714696.0	884559.0	0.143436	0.661902
     29473.57	0.12264	1835038.0	1589800.0	820025.0	0.143457	0.662029
     29474.07	0.12507	1866924.0	1618257.0	835200.0	0.142943	0.661434
     29474.57	0.14500	2159822.0	1871283.0	965914.0	0.143402	0.661305
     29475.07	0.11588	1725554.0	1495170.0	771751.0	0.143308	0.661333
     29475.57	0.11435	1700932.0	1474143.0	760819.0	0.143100	0.661437
     29476.07	0.11486	1706298.0	1478170.0	763269.0	0.143521	0.660950
     29476.57	0.13591	2029706.0	1758996.0	908107.0	0.143148	0.661136
     29477.07	0.12306	1833924.0	1589260.0	820742.0	0.143189	0.660815
     29477.57	0.12199	1813204.0	1571443.0	811761.0	0.143101	0.660544
     29478.07	0.12590	1874517.0	1624601.0	839347.0	0.143089	0.660393
     29478.57	0.12184	1813643.0	1572197.0	811887.0	0.142864	0.660868
     29479.07	0.11938	1782538.0	1545378.0	798004.0	0.142770	0.660910
     29479.57	0.11399	1698163.0	1471585.0	760270.0	0.143207	0.660422
     29480.07	0.12457	1859993.0	1612359.0	833170.0	0.142874	0.660216
     29480.57	0.11522	1716174.0	1487633.0	768178.0	0.142911	0.660920
     29481.07	0.12895	1902584.0	1648999.0	851901.0	0.143045	0.660453
     29481.57	0.12201	1823487.0	1581138.0	817169.0	0.142606	0.660054
     29482.07	0.12887	1917610.0	1662432.0	858730.0	0.142798	0.660582
     29482.57	0.14313	2119459.0	1837587.0	949353.0	0.142708	0.660428
     29483.07	0.11931	1762657.0	1528389.0	789465.0	0.142608	0.660614
     29483.57	0.12014	1786609.0	1549478.0	800497.0	0.142401	0.660441
     29484.07	0.12408	1845993.0	1601222.0	827168.0	0.142250	0.660515
     29484.57	0.14197	2112196.0	1831773.0	945906.0	0.142444	0.660896
     29485.07	0.11157	1664401.0	1443191.0	745533.0	0.142609	0.660513
     29485.57	0.13339	1996319.0	1731141.0	894042.0	0.142524	0.660783
     29486.07	0.11538	1721484.0	1492980.0	770920.0	0.142413	0.660945
     29486.57	0.14489	2164800.0	1877510.0	969530.0	0.142382	0.660890
     29487.07	0.11650	1739841.0	1509177.0	779190.0	0.142229	0.661065
     29487.57	0.12123	1819368.0	1578076.0	814697.0	0.142283	0.661145
     29488.07	0.12920	1934029.0	1677916.0	866360.0	0.142053	0.661007
     29488.57	0.11716	1754478.0	1521597.0	785498.0	0.142411	0.661198
     29489.07	0.14179	2119298.0	1838389.0	949558.0	0.142195	0.660648
     29489.57	0.13058	1948491.0	1690259.0	872833.0	0.142173	0.660893
     29490.07	0.15802	2353740.0	2042018.0	1054581.0	0.142067	0.660795
     29490.57	0.12788	1903185.0	1651049.0	852532.0	0.142118	0.660955
     29491.07	0.096451	1427416.0	1238624.0	639501.0	0.141865	0.661068
     29491.57	0.12040	1792381.0	1555244.0	803245.0	0.141912	0.660728
     29492.07	0.13421	2001429.0	1736294.0	896581.0	0.142108	0.660920
     29492.57	0.12381	1838227.0	1594893.0	823509.0	0.141995	0.660987
     29493.07	0.12720	1883693.0	1634405.0	843749.0	0.141955	0.661179
     29493.57	0.13370	1995892.0	1732236.0	893975.0	0.141678	0.661491
     29494.07	0.13805	2048370.0	1777841.0	917622.0	0.141645	0.661369
     29494.57	0.11125	1656683.0	1437701.0	742174.0	0.141772	0.661217
     29495.07	0.11460	1691739.0	1468139.0	758266.0	0.141761	0.660717
     29495.57	0.11723	1745906.0	1515383.0	782125.0	0.141605	0.661409
     29496.07	0.12547	1873383.0	1626246.0	839651.0	0.141472	0.661043
     29496.57	0.12509	1858653.0	1613428.0	832815.0	0.141491	0.661305
     29497.07	0.12146	1787232.0	1551502.0	800892.0	0.141445	0.661253
     29497.57	0.13949	2076613.0	1802836.0	930560.0	0.141377	0.661330
     29498.07	0.10797	1609808.0	1397768.0	721419.0	0.141238	0.661412
     29498.57	0.11442	1692737.0	1469846.0	758753.0	0.141189	0.661237
     29499.07	0.095691	1422977.0	1235432.0	637936.0	0.141330	0.660938
     29499.57	0.11598	1719611.0	1493383.0	770881.0	0.141054	0.661265
     29500.07	0.11311	1680933.0	1459524.0	753272.0	0.141239	0.661439
     29500.58	0.12972	1922880.0	1669221.0	861860.0	0.141467	0.661019
     29501.08	0.12801	1894972.0	1645466.0	849402.0	0.141180	0.661246
     29501.58	0.13040	1946762.0	1691270.0	872923.0	0.140688	0.661388
     29502.08	0.12068	1796016.0	1559872.0	805703.0	0.140967	0.660644
     29502.58	0.12016	1777461.0	1543507.0	796971.0	0.141129	0.660994
     29503.08	0.13264	1973381.0	1713981.0	885306.0	0.140930	0.660641
     29503.58	0.13371	1985929.0	1724640.0	890738.0	0.141068	0.660723
     29504.08	0.12543	1862805.0	1617832.0	835950.0	0.140996	0.660273
     29504.58	0.12030	1791114.0	1555579.0	803760.0	0.140990	0.660302
     29505.08	0.15455	2289856.0	1988502.0	1027331.0	0.141107	0.660417
     29505.58	0.13556	1999543.0	1737123.0	897396.0	0.140688	0.660488
     29506.08	0.15800	2332773.0	2026036.0	1046657.0	0.140977	0.660480
     29506.58	0.095802	1414833.0	1229135.0	635098.0	0.140701	0.660287
     29507.08	0.12587	1855151.0	1611730.0	832865.0	0.140658	0.660192
     29507.58	0.12552	1867666.0	1622582.0	838750.0	0.140671	0.659861
     29508.09	0.13371	1980145.0	1720332.0	889420.0	0.140653	0.659703
     29508.59	0.14199	2109190.0	1832352.0	947690.0	0.140704	0.659328
     29509.09	0.16488	2452147.0	2130581.0	1101669.0	0.140569	0.659568
     29509.59	0.18304	2729162.0	2371022.0	1225937.0	0.140674	0.659616
     29510.09	0.11185	1660449.0	1442934.0	746347.0	0.140410	0.659243
     29510.59	0.068170	1005131.0	873550.0	451881.0	0.140308	0.659146
     29511.09	0.12033	1783843.0	1550138.0	802451.0	0.140426	0.658428
     29511.59	0.12667	1874842.0	1629337.0	843529.0	0.140351	0.658334
     29512.09	0.13190	1955970.0	1699553.0	879545.0	0.140521	0.658716
     29512.59	0.12469	1856860.0	1613726.0	835310.0	0.140341	0.658498
     29513.09	0.11885	1768908.0	1537696.0	796201.0	0.140077	0.658189
     29513.60	0.12498	1857930.0	1614514.0	836210.0	0.140429	0.657909
     29514.10	0.13062	1937404.0	1683820.0	871906.0	0.140284	0.658139
     29514.60	0.12784	1895870.0	1647827.0	853441.0	0.140220	0.657936
     29515.10	0.11757	1744099.0	1515457.0	785124.0	0.140521	0.657631
     29515.60	0.12463	1854651.0	1611818.0	835374.0	0.140334	0.657238
     29516.10	0.12290	1833105.0	1593024.0	825729.0	0.140377	0.657123
     29516.60	0.12472	1851675.0	1609512.0	835038.0	0.140160	0.656209
     29517.10	0.12381	1832423.0	1592533.0	826185.0	0.140313	0.656262
     29517.60	0.11867	1767043.0	1535745.0	796559.0	0.140292	0.656470
     29518.10	0.12153	1794319.0	1559845.0	809560.0	0.140039	0.655851
     29518.61	0.12516	1852963.0	1610704.0	836129.0	0.140115	0.655644
     29519.11	0.11526	1710574.0	1486663.0	771714.0	0.140295	0.655675
     29519.61	0.12157	1803892.0	1567871.0	814361.0	0.140228	0.655070
     29520.11	0.12228	1815333.0	1577709.0	819883.0	0.140295	0.654567
     29520.61	0.13256	1962304.0	1705746.0	886434.0	0.140117	0.654551
     29521.11	0.12225	1808467.0	1571798.0	816660.0	0.140259	0.654753
     29521.61	0.11931	1761187.0	1531030.0	795792.0	0.140047	0.654358
     29522.11	0.12822	1894428.0	1646821.0	856142.0	0.140070	0.654166
     29522.62	0.12933	1915322.0	1665362.0	865963.0	0.139843	0.653956
     29523.12	0.13494	2000983.0	1739911.0	904985.0	0.139805	0.653671
     29523.62	0.12571	1871268.0	1626451.0	846266.0	0.140216	0.653322
     29524.12	0.13977	2067910.0	1797596.0	935734.0	0.140088	0.652874
     29524.62	0.11867	1751900.0	1522999.0	793190.0	0.140019	0.652374
     29525.12	0.12288	1817713.0	1580451.0	822849.0	0.139869	0.652693
     29525.62	0.11601	1713321.0	1489590.0	776158.0	0.139933	0.651900
     29526.12	0.12263	1820078.0	1582113.0	824731.0	0.140118	0.651459
     29526.63	0.12535	1865075.0	1621876.0	845239.0	0.139718	0.651719
     29527.13	0.12548	1859368.0	1616890.0	843151.0	0.139732	0.651114
     29527.63	0.12787	1890005.0	1643785.0	857682.0	0.139578	0.650523
     29528.13	0.14553	2151400.0	1870876.0	976346.0	0.139712	0.650345
     29528.63	0.12343	1827577.0	1589471.0	829274.0	0.139590	0.650606
     29529.13	0.12684	1878311.0	1633210.0	852809.0	0.139826	0.649767
     29529.64	0.12764	1882621.0	1637086.0	854929.0	0.139747	0.649655
     29530.14	0.12812	1885299.0	1639143.0	856291.0	0.139913	0.649319
     29530.64	0.12880	1890466.0	1643866.0	858894.0	0.139773	0.649161
     29531.14	0.12703	1881644.0	1636063.0	854903.0	0.139853	0.649060
     29531.64	0.13235	1955485.0	1700417.0	889194.0	0.139765	0.648313
     29532.14	0.12181	1793318.0	1559923.0	815708.0	0.139431	0.648335
     29532.64	0.12999	1923551.0	1672970.0	875355.0	0.139572	0.647726
     29533.15	0.11942	1762591.0	1532881.0	802374.0	0.139636	0.647329
     29533.65	0.12573	1853574.0	1612570.0	844038.0	0.139286	0.647387
     29534.15	0.12619	1857397.0	1615457.0	845678.0	0.139558	0.647234
     29534.65	0.12677	1871129.0	1627608.0	852493.0	0.139431	0.646702
     29535.15	0.12241	1811956.0	1575971.0	825594.0	0.139535	0.646524
     29535.65	0.11067	1629727.0	1417572.0	743064.0	0.139467	0.645919
     29536.16	0.12833	1897793.0	1650703.0	865446.0	0.139490	0.645712
     29536.66	0.12222	1802839.0	1568599.0	822622.0	0.139180	0.645441
     29537.16	0.10957	1622456.0	1411452.0	740372.0	0.139322	0.645221
     29537.66	0.10457	1540466.0	1340136.0	703350.0	0.139314	0.644672
     29538.16	0.11836	1742502.0	1515933.0	795362.0	0.139291	0.644989
     29538.67	0.11845	1741464.0	1515180.0	795568.0	0.139192	0.644233
     29539.17	0.11320	1670042.0	1452872.0	762909.0	0.139306	0.644159
     29539.67	0.12663	1867698.0	1624936.0	853505.0	0.139238	0.643872
     29540.17	0.12662	1862662.0	1620569.0	851636.0	0.139229	0.643373
     29540.67	0.12288	1810724.0	1575906.0	827952.0	0.138896	0.643630
     29541.17	0.12925	1896140.0	1650339.0	867312.0	0.138840	0.643337
     29541.68	0.13640	2014129.0	1752968.0	921496.0	0.138876	0.643067
     29542.18	0.12917	1887367.0	1643058.0	864163.0	0.138624	0.642553
     29542.68	0.12646	1861791.0	1620175.0	852218.0	0.139005	0.642447
     29543.18	0.12818	1873138.0	1630002.0	857940.0	0.139034	0.641802
     29543.68	0.13981	2066294.0	1798282.0	946248.0	0.138925	0.642082
     29544.19	0.16653	2460476.0	2141700.0	1127569.0	0.138755	0.641536
     29544.69	0.11149	1638937.0	1426538.0	750966.0	0.138797	0.641645
     29545.19	0.096942	1428959.0	1243636.0	654811.0	0.138907	0.641448
     29545.69	0.13142	1940611.0	1688843.0	889972.0	0.138959	0.640609
     29546.19	0.13537	1991595.0	1734169.0	913707.0	0.138407	0.640774
     29546.70	0.12950	1909366.0	1661999.0	875912.0	0.138750	0.640511
     29547.20	0.12989	1911186.0	1663755.0	877010.0	0.138647	0.640314
     29547.70	0.14933	2206085.0	1921120.0	1012929.0	0.138311	0.640062
     29548.20	0.14411	2113606.0	1840109.0	970322.0	0.138571	0.639952
     29548.71	0.12488	1844752.0	1605784.0	846918.0	0.138733	0.639764
     29549.21	0.10750	1572016.0	1368651.0	721879.0	0.138533	0.639723
     29549.71	0.13737	2010842.0	1750981.0	924224.0	0.138377	0.638977
     29550.21	0.12699	1874965.0	1632740.0	861520.0	0.138330	0.639317
     29550.71	0.12639	1863606.0	1622665.0	856548.0	0.138443	0.638915
     29551.22	0.12484	1835365.0	1598489.0	844273.0	0.138185	0.638338
     29551.72	0.12921	1904987.0	1659150.0	876302.0	0.138170	0.638350
     29552.22	0.12350	1812913.0	1579072.0	833945.0	0.138098	0.638425
     29552.72	0.12434	1835368.0	1598314.0	844605.0	0.138296	0.637836
     29553.23	0.13097	1910817.0	1664463.0	879184.0	0.138028	0.638264
     29553.73	0.12071	1783264.0	1553020.0	820406.0	0.138244	0.638157
     29554.23	0.13013	1911513.0	1664918.0	880093.0	0.138119	0.637504
     29554.73	0.13730	2016590.0	1756635.0	928417.0	0.138008	0.637674
     29555.24	0.11988	1770695.0	1542543.0	815451.0	0.137940	0.637446
     29555.74	0.11610	1715342.0	1493961.0	789815.0	0.138181	0.637388
     29556.24	0.11876	1742566.0	1518011.0	802557.0	0.137958	0.637353
     29556.74	0.11601	1715028.0	1494214.0	790006.0	0.137829	0.637315
     29557.24	0.12446	1837659.0	1601011.0	846653.0	0.137857	0.637100
     29557.75	0.12103	1771094.0	1543118.0	816375.0	0.137792	0.636687
     29558.25	0.12457	1824569.0	1590163.0	841237.0	0.137507	0.636718
     29558.75	0.11293	1654178.0	1441426.0	762673.0	0.137671	0.636559
     29559.26	0.13205	1945387.0	1695080.0	897139.0	0.137731	0.636274
     29559.76	0.13592	2005557.0	1747543.0	924823.0	0.137711	0.636364
     29560.26	0.11684	1720090.0	1498857.0	793085.0	0.137674	0.636528
     29560.76	0.11829	1726786.0	1504666.0	796284.0	0.137691	0.636370
     29561.27	0.13706	2011728.0	1752919.0	927737.0	0.137712	0.636289
     29561.77	0.14544	2138587.0	1863666.0	986261.0	0.137600	0.636380
     29562.27	0.11220	1643517.0	1432203.0	758157.0	0.137625	0.636079
     29562.77	0.13064	1907240.0	1662060.0	879928.0	0.137599	0.635973
     29563.28	0.12965	1903385.0	1658998.0	878571.0	0.137420	0.635672
     29563.78	0.18226	2684098.0	2339836.0	1238986.0	0.137264	0.635788
     29564.28	0.064583	949952.0	828012.0	438478.0	0.137384	0.635718
     29564.78	0.10788	1583439.0	1380104.0	730753.0	0.137440	0.635839
     29565.29	0.12933	1906132.0	1661039.0	879493.0	0.137633	0.635853
     29565.79	0.12249	1798878.0	1568090.0	830893.0	0.137305	0.635113
     29566.29	0.13357	1962049.0	1709829.0	906083.0	0.137596	0.635018
     29566.80	0.13386	1966866.0	1714623.0	908766.0	0.137248	0.634861
     29567.30	0.13588	1999798.0	1743036.0	923604.0	0.137418	0.635100
     29567.80	0.12794	1878096.0	1637154.0	867435.0	0.137299	0.635174
     29568.30	0.12209	1762844.0	1536601.0	814348.0	0.137356	0.634940
     29568.81	0.12512	1822405.0	1588883.0	841511.0	0.137126	0.635587
     29569.31	0.13208	1920144.0	1673634.0	886896.0	0.137403	0.635025
     29569.81	0.12346	1793802.0	1564172.0	829072.0	0.136981	0.634805
     29570.32	0.13015	1901382.0	1658194.0	878768.0	0.136852	0.634963
     29570.82	0.12466	1822203.0	1588616.0	842079.0	0.137183	0.634745
     29571.32	0.13343	1953686.0	1703114.0	902927.0	0.137260	0.634572
     29571.82	0.12854	1874915.0	1635292.0	866782.0	0.136742	0.634789
     29572.33	0.12480	1837464.0	1602143.0	848988.0	0.137044	0.635052
     29572.83	0.11527	1678151.0	1463705.0	776266.0	0.136722	0.634231
     29573.33	0.12499	1820988.0	1587929.0	842020.0	0.136949	0.634382
     29573.84	0.12549	1844351.0	1608671.0	852641.0	0.136719	0.634825
     29574.34	0.11729	1723380.0	1502945.0	796693.0	0.136861	0.634712
     29574.84	0.12625	1855678.0	1618595.0	857793.0	0.136692	0.634951
     29575.35	0.12476	1831646.0	1597644.0	847127.0	0.136685	0.634435
     29575.85	0.11785	1720183.0	1500468.0	795603.0	0.136654	0.634432
     29576.35	0.11587	1701624.0	1484260.0	786995.0	0.136667	0.634450
     29576.85	0.11774	1725678.0	1505230.0	798357.0	0.136674	0.634145
     29577.36	0.10993	1595521.0	1391574.0	737948.0	0.136765	0.634317
     29577.86	0.11624	1695007.0	1478446.0	784447.0	0.136695	0.633768
     29578.36	0.12607	1839329.0	1604623.0	850665.0	0.136512	0.634626
     29578.87	0.11531	1679536.0	1465279.0	777236.0	0.136472	0.634057
     29579.37	0.12106	1761276.0	1536445.0	814933.0	0.136567	0.634121
     29579.87	0.12284	1793444.0	1564861.0	830063.0	0.136341	0.634051
     29580.38	0.14241	2070890.0	1806054.0	958497.0	0.136834	0.633533
     29580.88	0.11734	1724791.0	1504897.0	798458.0	0.136381	0.633797
     29581.38	0.11976	1755329.0	1531909.0	813065.0	0.136142	0.633459
     29581.89	0.13456	1954651.0	1705279.0	904935.0	0.136483	0.633621
     29582.39	0.12294	1802350.0	1572702.0	834304.0	0.136296	0.633953
     29582.89	0.14266	2081939.0	1816778.0	964253.0	0.136235	0.633466
     29583.40	0.13555	1962016.0	1711824.0	908287.0	0.136413	0.633754
     29583.90	0.12975	1891415.0	1650611.0	875892.0	0.136180	0.633658
     29584.40	0.11507	1683921.0	1469701.0	779906.0	0.136066	0.633641
     29584.91	0.11877	1737984.0	1516916.0	805117.0	0.136046	0.633447
     29585.41	0.12720	1852871.0	1617044.0	858367.0	0.136137	0.633323
     29585.91	0.13376	1963838.0	1713930.0	910153.0	0.136112	0.632932
     29586.42	0.13082	1916470.0	1672726.0	887797.0	0.136030	0.633467
     29586.92	0.13997	2021174.0	1764087.0	936483.0	0.136045	0.633257
     29587.42	0.12918	1886472.0	1647054.0	874340.0	0.135720	0.633274
     29587.93	0.14520	2106199.0	1838485.0	976618.0	0.135943	0.632602
     29588.43	0.14518	2120111.0	1850716.0	982921.0	0.135896	0.632799
     29588.93	0.10934	1598680.0	1395518.0	741181.0	0.135913	0.632776
     29589.44	0.11892	1736821.0	1516222.0	805417.0	0.135835	0.632617
     29589.94	0.13554	1978056.0	1726633.0	917295.0	0.135941	0.632499
     29590.45	0.13550	1976805.0	1725748.0	916629.0	0.135821	0.632713
     29590.95	0.14948	2189311.0	1911490.0	1015677.0	0.135704	0.632328
     29591.45	0.096783	1411541.0	1231939.0	654783.0	0.136093	0.632041
     29591.96	0.13187	1924274.0	1680362.0	893039.0	0.135540	0.632134
     29592.46	0.12596	1841539.0	1607641.0	854531.0	0.135834	0.631970
     29592.96	0.12168	1775434.0	1550729.0	824631.0	0.135320	0.631544
     29593.47	0.12042	1754253.0	1531932.0	814398.0	0.135513	0.631836
     29593.97	0.12682	1853330.0	1618875.0	860842.0	0.135253	0.631576
     29594.48	0.12899	1878578.0	1640420.0	872172.0	0.135563	0.631721
     29594.98	0.13152	1916989.0	1674102.0	890418.0	0.135479	0.631341
     29595.48	0.12266	1783092.0	1557281.0	828457.0	0.135408	0.631132
     29595.99	0.12037	1763218.0	1539629.0	819008.0	0.135599	0.631203
     29596.49	0.12280	1786882.0	1560875.0	830507.0	0.135226	0.630965
     29596.99	0.12489	1827219.0	1595941.0	849142.0	0.135332	0.630992
     29597.50	0.11258	1636747.0	1429752.0	761091.0	0.135210	0.630503
     29598.00	0.13004	1889044.0	1650081.0	878330.0	0.135247	0.630557
     29598.51	0.12236	1768577.0	1545416.0	822594.0	0.134882	0.630586
     29599.01	0.11829	1713575.0	1496962.0	797278.0	0.135144	0.629990
     29599.51	0.12201	1777583.0	1552754.0	826585.0	0.135224	0.630483
     29600.02	0.13127	1923448.0	1680706.0	895091.0	0.134905	0.630044
     29600.52	0.12189	1775753.0	1551770.0	826584.0	0.134828	0.629850
     29601.03	0.11815	1720936.0	1503841.0	801057.0	0.134846	0.629846
     29601.53	0.13918	2019161.0	1764439.0	940337.0	0.134849	0.629350
     29602.03	0.12646	1843176.0	1610240.0	858022.0	0.135107	0.629509
     29602.54	0.12201	1779179.0	1554477.0	828522.0	0.135013	0.629251
     29603.04	0.13256	1930331.0	1686787.0	899087.0	0.134866	0.629201
     29603.55	0.12355	1791084.0	1565483.0	834661.0	0.134627	0.628924
     29604.05	0.12589	1830764.0	1599857.0	853241.0	0.134819	0.628627
     29604.55	0.12303	1796473.0	1569888.0	837148.0	0.134821	0.628759
     29605.06	0.12238	1776983.0	1552528.0	828346.0	0.135032	0.628209
     29605.56	0.13232	1940627.0	1695706.0	904841.0	0.134912	0.628095
     29606.07	0.12498	1819669.0	1590366.0	848637.0	0.134690	0.628088
     29606.57	0.12559	1836955.0	1605777.0	856937.0	0.134502	0.627999
     29607.07	0.13418	1958709.0	1712244.0	913759.0	0.134481	0.627993
     29607.58	0.13424	1958336.0	1711849.0	913861.0	0.134521	0.627651
     29608.08	0.14406	2091693.0	1828607.0	976761.0	0.134419	0.627068
     29608.59	0.11919	1740933.0	1522016.0	813093.0	0.134385	0.626946
     29609.09	0.12982	1897558.0	1658940.0	885911.0	0.134389	0.627318
     29609.60	0.13152	1924626.0	1682412.0	899253.0	0.134503	0.626419
     29610.10	0.12947	1895423.0	1657207.0	885995.0	0.134308	0.626178
     29610.60	0.12796	1873453.0	1637482.0	875427.0	0.134624	0.626203
     29611.11	0.13677	1983057.0	1733796.0	926782.0	0.134326	0.626350
     29611.61	0.12561	1822207.0	1592830.0	851785.0	0.134536	0.625933
     29612.12	0.12087	1769253.0	1546912.0	827233.0	0.134297	0.625930
     29612.62	0.12905	1887990.0	1650986.0	882960.0	0.134140	0.625848
     29613.13	0.11718	1719721.0	1503480.0	804663.0	0.134380	0.625114
     29613.63	0.12659	1855788.0	1622732.0	868252.0	0.134198	0.625384
     29614.13	0.11912	1743017.0	1524373.0	816036.0	0.134034	0.624880
     29614.64	0.11616	1698873.0	1485725.0	795628.0	0.134062	0.624526
     29615.14	0.12742	1868750.0	1634216.0	874929.0	0.134107	0.624776
     29615.65	0.10842	1592522.0	1392283.0	745593.0	0.134374	0.624520
     29616.15	0.11427	1676229.0	1465452.0	785212.0	0.134383	0.623965
     29616.66	0.11841	1732371.0	1514769.0	812035.0	0.134228	0.623475
     29617.16	0.11059	1615388.0	1412601.0	757259.0	0.134142	0.623483
     29617.67	0.11657	1708806.0	1494535.0	801376.0	0.133980	0.623240
     29618.17	0.10955	1606788.0	1404782.0	753477.0	0.134355	0.622939
     29618.68	0.13404	1962587.0	1716445.0	920632.0	0.134008	0.622950
     29619.18	0.12088	1771386.0	1549233.0	830943.0	0.134002	0.622954
     29619.68	0.11562	1690115.0	1478538.0	793635.0	0.133743	0.622185
     29620.19	0.11856	1734953.0	1517498.0	814714.0	0.133917	0.621981
     29620.69	0.12701	1855510.0	1622967.0	871270.0	0.133904	0.622059
     29621.20	0.12209	1787901.0	1563730.0	839512.0	0.133968	0.622009
     29621.70	0.12892	1883927.0	1648079.0	884991.0	0.133748	0.621788
     29622.21	0.13755	1999814.0	1749243.0	939663.0	0.133871	0.621417
     29622.71	0.12035	1756271.0	1536145.0	825426.0	0.133917	0.621132
     29623.22	0.14857	2165754.0	1894489.0	1018105.0	0.133819	0.621006
     29623.72	0.12873	1882123.0	1646348.0	884826.0	0.133841	0.620924
     29624.23	0.13243	1941759.0	1698467.0	912799.0	0.133868	0.620966
     29624.73	0.10206	1493628.0	1306538.0	702680.0	0.133827	0.620235
     29625.24	0.12292	1801287.0	1575736.0	847452.0	0.133779	0.620244
     29625.74	0.13469	1968663.0	1722573.0	926767.0	0.133536	0.619872
     29626.25	0.13553	1972921.0	1726135.0	928801.0	0.133630	0.619746
     29626.75	0.13048	1901792.0	1663742.0	895489.0	0.133727	0.619455
     29627.26	0.13863	2017599.0	1765023.0	950028.0	0.133744	0.619428
     29627.76	0.12594	1831468.0	1602698.0	862634.0	0.133429	0.619453
     29628.27	0.13787	2009549.0	1758144.0	947061.0	0.133652	0.618650
     29628.77	0.12749	1856608.0	1624330.0	874978.0	0.133656	0.618652
     29629.28	0.13282	1938356.0	1695995.0	913498.0	0.133571	0.618744
     29629.78	0.13048	1900920.0	1663526.0	896708.0	0.133399	0.617964
     29630.28	0.13122	1917429.0	1678018.0	904385.0	0.133372	0.618113
     29630.79	0.13236	1931745.0	1690031.0	910995.0	0.133677	0.617965
     29631.29	0.12949	1895323.0	1658463.0	894170.0	0.133498	0.617751
     29631.80	0.12252	1792196.0	1568269.0	845830.0	0.133469	0.617409
     29632.31	0.12944	1880167.0	1645838.0	888078.0	0.133111	0.616945
     29632.81	0.12129	1763747.0	1543357.0	832820.0	0.133481	0.616898
     29633.32	0.11716	1711185.0	1497558.0	808124.0	0.133350	0.616876
     29633.82	0.13470	1967778.0	1722033.0	929501.0	0.133399	0.616613
     29634.33	0.11458	1667575.0	1459728.0	788146.0	0.133120	0.616322
     29634.83	0.13961	2043345.0	1788594.0	965736.0	0.133158	0.616295
     29635.34	0.11936	1744583.0	1527059.0	825070.0	0.133172	0.615631
     29635.84	0.12651	1846156.0	1615828.0	872704.0	0.133258	0.616006
     29636.35	0.12509	1822350.0	1595096.0	861790.0	0.133193	0.615678
     29636.85	0.12007	1755894.0	1537079.0	830722.0	0.133094	0.615344
     29637.36	0.12056	1759493.0	1540534.0	832547.0	0.132897	0.615395
     29637.86	0.11736	1713851.0	1500318.0	811245.0	0.133066	0.614862
     29638.37	0.12912	1886450.0	1651535.0	893047.0	0.132992	0.614821
     29638.87	0.11877	1735363.0	1519496.0	821540.0	0.132838	0.614953
     29639.38	0.12235	1785797.0	1563607.0	845477.0	0.132869	0.614850
     29639.88	0.11631	1700093.0	1488309.0	805129.0	0.133042	0.614393
     29640.39	0.12671	1842901.0	1613927.0	873369.0	0.132671	0.614067
     29640.89	0.11784	1720784.0	1506943.0	815411.0	0.132697	0.614146
     29641.40	0.13457	1958140.0	1714637.0	928019.0	0.132794	0.613904
     29641.90	0.12281	1786824.0	1564918.0	847035.0	0.132606	0.613847
     29642.41	0.12387	1804413.0	1580275.0	855773.0	0.132636	0.613349
     29642.91	0.13883	2027866.0	1775744.0	961458.0	0.132765	0.613524
     29643.42	0.12448	1804968.0	1580998.0	856284.0	0.132487	0.613209
     29643.93	0.12530	1824628.0	1597676.0	865643.0	0.132826	0.612833
     29644.43	0.13250	1932374.0	1692071.0	916827.0	0.132796	0.612790
     29644.94	0.12684	1849759.0	1620204.0	877897.0	0.132503	0.612778
     29645.44	0.11386	1657078.0	1451415.0	786553.0	0.132517	0.612634
     29645.95	0.12763	1857305.0	1626989.0	881741.0	0.132395	0.612588
     29646.45	0.13162	1917125.0	1679539.0	910306.0	0.132307	0.612494
     29646.96	0.11848	1722475.0	1509164.0	817972.0	0.132206	0.612483
     29647.46	0.11701	1708275.0	1496441.0	811477.0	0.132394	0.611989
     29647.97	0.13482	1960703.0	1718179.0	931871.0	0.132038	0.611826
     29648.48	0.13540	1961427.0	1718902.0	932135.0	0.131987	0.611963
     29648.98	0.13829	2015415.0	1765843.0	957543.0	0.132197	0.612013
     29649.49	0.11896	1731895.0	1517715.0	823325.0	0.132010	0.611610
     29649.99	0.12568	1832544.0	1605694.0	870968.0	0.132149	0.611706
     29650.50	0.12558	1823968.0	1598386.0	867285.0	0.132020	0.611382
     29651.00	0.13160	1910153.0	1673994.0	908822.0	0.131971	0.610818
     29651.51	0.14314	2083322.0	1825110.0	990747.0	0.132323	0.610936
     29652.02	0.11804	1717338.0	1504488.0	816583.0	0.132323	0.611079
     29652.52	0.13411	1943954.0	1703678.0	925093.0	0.131935	0.610650
     29653.03	0.14654	2133346.0	1869690.0	1014716.0	0.131919	0.611164
     29653.53	0.11413	1650298.0	1446340.0	785657.0	0.131920	0.610271
     29654.04	0.11907	1726182.0	1512894.0	821327.0	0.131888	0.610858
     29654.54	0.11200	1620010.0	1420236.0	771242.0	0.131609	0.610576
     29655.05	0.12849	1863768.0	1633088.0	887116.0	0.132128	0.610252
     29655.56	0.13227	1912814.0	1676505.0	910636.0	0.131864	0.610323
     29656.06	0.13996	2026267.0	1776325.0	964703.0	0.131649	0.610482
     29656.57	0.12697	1832800.0	1606393.0	872600.0	0.131854	0.610269
     29657.07	0.14417	2076154.0	1820079.0	989169.0	0.131637	0.609770
     29657.58	0.090279	1295041.0	1135609.0	616905.0	0.131373	0.610209
     29658.09	0.10119	1459026.0	1278971.0	695105.0	0.131713	0.609748
     29658.59	0.10463	1516598.0	1329809.0	722589.0	0.131434	0.609950
     29659.10	0.11328	1632812.0	1431720.0	777931.0	0.131427	0.609994
     29659.60	0.12005	1726084.0	1513348.0	822427.0	0.131531	0.609820
     29660.11	0.12967	1868089.0	1638068.0	890279.0	0.131398	0.609738
     29660.62	0.11904	1718693.0	1506705.0	819283.0	0.131639	0.609251
     29661.12	0.12145	1756425.0	1540000.0	837211.0	0.131498	0.609462
     29661.63	0.11433	1656106.0	1452431.0	789629.0	0.131230	0.609431
     29662.13	0.12312	1776885.0	1558081.0	847148.0	0.131407	0.609335
     29662.64	0.12742	1848594.0	1620936.0	881262.0	0.131422	0.609404
     29663.15	0.13765	1994065.0	1748740.0	950936.0	0.131280	0.609204
     29663.65	0.13032	1887012.0	1654795.0	900283.0	0.131317	0.608723
     29664.16	0.13765	1994967.0	1749320.0	952032.0	0.131400	0.608384
     29664.66	0.14176	2059202.0	1805709.0	982310.0	0.131365	0.608802
     29665.17	0.14521	2103057.0	1844214.0	1003498.0	0.131339	0.608561
     29665.68	0.099812	1444729.0	1267053.0	689469.0	0.131228	0.608527
     29666.18	0.11484	1650965.0	1447967.0	787937.0	0.131199	0.608498
     29666.69	0.12800	1837968.0	1612045.0	877143.0	0.131157	0.608589
     29667.19	0.13984	2023298.0	1774809.0	965711.0	0.131036	0.608583
     29667.70	0.11840	1699318.0	1491090.0	811358.0	0.130720	0.608553
     29668.21	0.15216	2186002.0	1917521.0	1044048.0	0.131041	0.607928
     29668.71	0.13040	1891732.0	1659366.0	903017.0	0.131057	0.608450
     29669.22	0.13686	1976200.0	1733448.0	943671.0	0.131063	0.608090
     29669.73	0.11594	1649802.0	1446927.0	788065.0	0.131213	0.607617
     29670.23	0.13410	1915155.0	1679809.0	914718.0	0.131118	0.607820
     29670.74	0.12722	1818035.0	1594909.0	868624.0	0.130940	0.607662
     29671.25	0.13106	1856190.0	1628297.0	887076.0	0.130991	0.607359
     29671.75	0.13435	1917395.0	1682520.0	916527.0	0.130675	0.607456
     29672.26	0.13291	1894988.0	1663034.0	906356.0	0.130569	0.606967
     29672.76	0.12505	1777820.0	1559473.0	849540.0	0.131040	0.607408
     29673.27	0.13404	1921352.0	1685993.0	918569.0	0.130674	0.607293
     29673.78	0.11508	1652896.0	1450113.0	790574.0	0.130887	0.606637
     29674.28	0.11768	1689224.0	1482572.0	808135.0	0.130491	0.606805
     29674.79	0.12670	1830472.0	1606699.0	875562.0	0.130392	0.607071
     29675.30	0.12207	1760601.0	1544569.0	842122.0	0.130910	0.606575
     29675.80	0.12326	1774683.0	1557252.0	848998.0	0.130699	0.606621
     29676.31	0.12925	1870109.0	1641312.0	894843.0	0.130501	0.606603
     29676.82	0.12429	1793577.0	1574548.0	858433.0	0.130244	0.606615
     29677.32	0.13073	1899817.0	1667215.0	909348.0	0.130603	0.606182
     29677.83	0.12141	1739266.0	1526660.0	832629.0	0.130381	0.606249
     29678.34	0.11159	1583402.0	1389571.0	758113.0	0.130581	0.605918
     29678.84	0.12710	1821879.0	1599078.0	872185.0	0.130441	0.606181
     29679.35	0.11776	1689995.0	1483905.0	809180.0	0.130048	0.606411
     29679.86	0.11481	1650998.0	1449350.0	790674.0	0.130265	0.605985
     29680.36	0.12651	1824357.0	1601736.0	873964.0	0.130140	0.605804
     29680.87	0.12035	1739348.0	1526590.0	832948.0	0.130474	0.605821
     29681.38	0.11689	1689011.0	1482803.0	809139.0	0.130209	0.605719
     29681.88	0.12853	1852533.0	1626449.0	887445.0	0.130155	0.605808
     29682.39	0.13153	1883945.0	1653971.0	902836.0	0.130189	0.605393
     29682.90	0.12513	1797367.0	1578202.0	861567.0	0.130037	0.605289
     29683.40	0.13647	1950313.0	1712504.0	935069.0	0.130033	0.605092
     29683.91	0.12372	1784215.0	1566747.0	855316.0	0.129977	0.605286
     29684.42	0.13013	1874360.0	1645973.0	898530.0	0.129936	0.605327
     29684.92	0.13138	1875807.0	1647066.0	899373.0	0.130043	0.605053
     29685.43	0.12154	1743416.0	1531139.0	836223.0	0.129835	0.604872
     29685.94	0.11760	1677234.0	1473015.0	804425.0	0.129835	0.604939
     29686.44	0.12466	1785353.0	1567729.0	856605.0	0.129988	0.604406
     29686.95	0.12549	1795535.0	1576934.0	861455.0	0.129821	0.604615
     29687.46	0.13050	1884417.0	1655244.0	904461.0	0.129670	0.604365
     29687.97	0.12895	1856514.0	1630696.0	891193.0	0.129694	0.604201
     29688.47	0.12778	1830211.0	1607565.0	878488.0	0.129711	0.604274
     29688.98	0.12335	1770632.0	1555432.0	850150.0	0.129583	0.604096
     29689.49	0.13196	1894211.0	1664063.0	909874.0	0.129540	0.603711
     29689.99	0.12461	1793143.0	1575063.0	861186.0	0.129675	0.603740
     29690.50	0.12793	1838761.0	1615273.0	883369.0	0.129588	0.603516
     29691.01	0.13622	1970076.0	1730645.0	946349.0	0.129578	0.603638
     29691.51	0.12688	1836961.0	1613911.0	882537.0	0.129452	0.603615
     29692.02	0.12438	1780105.0	1563348.0	855073.0	0.129843	0.603398
     29692.53	0.12561	1811758.0	1591991.0	870964.0	0.129312	0.603140
     29693.04	0.13438	1935727.0	1700855.0	930396.0	0.129352	0.603276
     29693.54	0.12099	1737654.0	1526720.0	835526.0	0.129414	0.602815
     29694.05	0.13059	1887634.0	1658783.0	907606.0	0.129240	0.603029
     29694.56	0.12553	1813899.0	1593327.0	872029.0	0.129654	0.602757
     29695.06	0.11790	1696413.0	1490737.0	815816.0	0.129245	0.602837
     29695.57	0.12895	1852561.0	1628089.0	891277.0	0.129162	0.602507
     29696.08	0.12496	1802301.0	1583392.0	867033.0	0.129495	0.602248
     29696.59	0.12377	1774131.0	1558931.0	853919.0	0.129310	0.601919
     29697.09	0.11471	1650062.0	1450091.0	793876.0	0.129187	0.602454
     29697.60	0.10536	1521275.0	1337333.0	732260.0	0.128871	0.602297
     29698.11	0.12442	1795357.0	1577956.0	864315.0	0.129074	0.601948
     29698.62	0.11763	1693981.0	1489002.0	815601.0	0.128975	0.601936
     29699.12	0.11674	1677358.0	1474727.0	808137.0	0.128747	0.601497
     29699.63	0.11251	1615656.0	1419985.0	778203.0	0.129095	0.601414
     29700.14	0.12028	1730014.0	1520473.0	833388.0	0.129108	0.601277
     29700.65	0.11847	1701490.0	1495700.0	819618.0	0.128910	0.601511
     29701.15	0.12271	1769523.0	1555587.0	852527.0	0.128857	0.601403
     29701.66	0.11202	1609252.0	1414660.0	775300.0	0.128880	0.601394
     29702.17	0.13141	1895331.0	1666218.0	913845.0	0.128837	0.600651
     29702.67	0.14367	2071806.0	1821717.0	999112.0	0.128641	0.600668
     29703.18	0.13771	1992143.0	1751087.0	960243.0	0.128974	0.600806
     29703.69	0.10943	1581891.0	1390976.0	762942.0	0.128615	0.600579
     29704.20	0.13949	2015483.0	1772090.0	972144.0	0.128699	0.600411
     29704.70	0.12610	1825446.0	1605092.0	880657.0	0.128643	0.600268
     29705.21	0.12798	1844639.0	1621676.0	890399.0	0.128823	0.599546
     29705.72	0.12821	1846323.0	1623472.0	891417.0	0.128629	0.599510
     29706.23	0.12964	1868308.0	1642422.0	902097.0	0.128861	0.599205
     29706.74	0.11377	1624427.0	1428680.0	784256.0	0.128404	0.599771
     29707.24	0.13924	2000194.0	1759008.0	965850.0	0.128494	0.599497
     29707.75	0.13358	1904095.0	1674484.0	919627.0	0.128502	0.599292
     29708.26	0.12623	1810465.0	1592017.0	874442.0	0.128582	0.599171
     29708.77	0.12465	1792272.0	1576484.0	866029.0	0.128287	0.599034
     29709.27	0.13709	1972753.0	1735317.0	953426.0	0.128240	0.598884
     29709.78	0.13746	1957451.0	1721814.0	946023.0	0.128265	0.598867
     29710.29	0.14175	2024444.0	1780929.0	978632.0	0.128160	0.598735
     29710.80	0.12841	1842580.0	1620147.0	890566.0	0.128650	0.598415
     29711.30	0.12495	1796567.0	1580172.0	868639.0	0.128344	0.598361
     29711.81	0.13674	1951511.0	1716529.0	943745.0	0.128300	0.598204
     29712.32	0.13340	1914156.0	1683353.0	925847.0	0.128489	0.597834
     29712.83	0.12622	1813642.0	1595553.0	877396.0	0.128117	0.598017
     29713.34	0.12035	1731937.0	1523546.0	837782.0	0.128200	0.598038
     29713.84	0.12077	1739393.0	1529803.0	841841.0	0.128397	0.597303
     29714.35	0.12902	1858134.0	1634147.0	899057.0	0.128452	0.597530
     29714.86	0.13236	1902456.0	1673525.0	920566.0	0.128214	0.597699
     29715.37	0.12015	1715682.0	1509096.0	830645.0	0.128300	0.597064
     29715.88	0.12592	1805304.0	1588061.0	873946.0	0.128215	0.597250
     29716.38	0.12088	1743241.0	1533704.0	844534.0	0.128060	0.596656
     29716.89	0.12201	1745975.0	1536009.0	846134.0	0.128126	0.596265
     29717.40	0.12821	1837679.0	1616716.0	890431.0	0.128106	0.596447
     29717.91	0.11769	1685061.0	1482483.0	816754.0	0.128083	0.596136
     29718.41	0.12135	1736714.0	1528033.0	841792.0	0.128014	0.596204
     29718.92	0.12108	1736464.0	1528515.0	842239.0	0.127554	0.595988
     29719.43	0.12888	1844319.0	1623013.0	894307.0	0.127826	0.595990
     29719.94	0.12630	1813505.0	1595596.0	879486.0	0.128014	0.595665
     29720.45	0.11433	1634198.0	1438156.0	792512.0	0.127790	0.595909
     29720.96	0.12256	1752721.0	1542182.0	850331.0	0.127971	0.595328
     29721.46	0.11756	1672795.0	1471848.0	811583.0	0.127977	0.595287
     29721.97	0.12923	1848366.0	1626217.0	896624.0	0.128046	0.595375
     29722.48	0.12915	1851820.0	1630051.0	898957.0	0.127558	0.595131
     29722.99	0.13435	1924682.0	1693805.0	934400.0	0.127783	0.594828
     29723.50	0.12978	1845029.0	1623876.0	895693.0	0.127679	0.594973
     29724.00	0.12842	1837867.0	1617427.0	892385.0	0.127769	0.594694
     29724.51	0.12847	1843492.0	1622565.0	895324.0	0.127653	0.594578
     29725.02	0.12896	1831341.0	1611723.0	889700.0	0.127745	0.594175
     29725.53	0.11582	1631130.0	1436088.0	792669.0	0.127350	0.594272
     29726.04	0.11974	1703257.0	1499235.0	827698.0	0.127587	0.594062
     29726.55	0.13436	1911634.0	1682774.0	929267.0	0.127515	0.593803
     29727.05	0.11443	1624438.0	1429873.0	789766.0	0.127576	0.593604
     29727.56	0.12360	1758733.0	1548253.0	855205.0	0.127466	0.593541
     29728.07	0.12873	1840085.0	1619746.0	894427.0	0.127542	0.593841
     29728.58	0.13010	1858831.0	1636447.0	904084.0	0.127420	0.593360
     29729.09	0.12905	1845164.0	1623831.0	897426.0	0.127780	0.593013
     29729.60	0.12596	1769449.0	1557653.0	860984.0	0.127488	0.592860
     29730.10	0.12958	1837736.0	1617839.0	894134.0	0.127443	0.592991
     29730.61	0.12964	1815296.0	1598122.0	883594.0	0.127419	0.592587
     29731.12	0.13368	1895443.0	1668640.0	922397.0	0.127444	0.592788
     29731.63	0.12674	1791201.0	1577304.0	872131.0	0.127169	0.592533
     29732.14	0.13712	1930305.0	1699685.0	940219.0	0.127235	0.592085
     29732.65	0.16825	2370153.0	2087027.0	1154594.0	0.127214	0.591992
     29733.15	0.16526	2316916.0	2040335.0	1128685.0	0.127123	0.592061
     29733.66	0.067255	952499.0	838871.0	464191.0	0.127032	0.591761
     29734.17	0.10031	1413118.0	1244360.0	688499.0	0.127177	0.591863
     29734.68	0.12065	1705420.0	1501780.0	830886.0	0.127160	0.591914
     29735.19	0.11752	1663269.0	1464603.0	810738.0	0.127201	0.591395
     29735.70	0.12745	1802332.0	1587102.0	878684.0	0.127172	0.591240
     29736.21	0.13402	1910194.0	1682335.0	931335.0	0.127022	0.591319
     29736.71	0.16357	2314729.0	2038679.0	1128984.0	0.126991	0.590984
     29737.22	0.15392	2169325.0	1910351.0	1057874.0	0.127129	0.591026
     29737.73	0.073252	1022541.0	900529.0	498806.0	0.127064	0.590765
     29738.24	0.092219	1302045.0	1146857.0	635441.0	0.126911	0.590461
     29738.75	0.099152	1411643.0	1243378.0	688792.0	0.126922	0.590648
     29739.26	0.12464	1769282.0	1558284.0	863604.0	0.126989	0.590226
     29739.77	0.11181	1584576.0	1395839.0	773342.0	0.126821	0.590530
     29740.28	0.15686	2216311.0	1952391.0	1082006.0	0.126789	0.590238
     29740.78	0.14756	2094552.0	1844854.0	1022872.0	0.126940	0.589786
     29741.29	0.10242	1443373.0	1271454.0	704943.0	0.126822	0.589799
     29741.80	0.076349	1088770.0	958947.0	531715.0	0.126968	0.589728
     29742.31	0.12560	1788392.0	1575582.0	873685.0	0.126692	0.589660
     29742.82	0.12305	1746589.0	1538690.0	853142.0	0.126733	0.589761
     29743.33	0.12245	1745636.0	1537966.0	852941.0	0.126658	0.589526
     29743.84	0.13918	1993150.0	1755874.0	974075.0	0.126750	0.589234
     29744.35	0.13481	1915833.0	1687909.0	936335.0	0.126662	0.589272
     29744.86	0.13156	1857307.0	1636934.0	908265.0	0.126303	0.589044
     29745.36	0.12854	1836677.0	1618657.0	898262.0	0.126361	0.588890
     29745.87	0.12293	1750234.0	1542232.0	856065.0	0.126519	0.588640
     29746.38	0.11559	1641267.0	1446610.0	803439.0	0.126246	0.588077
     29746.89	0.13218	1858836.0	1637925.0	909521.0	0.126520	0.588267
     29747.40	0.13019	1847501.0	1628229.0	903964.0	0.126341	0.588459
     29747.91	0.14409	2042216.0	1799943.0	999685.0	0.126280	0.588070
     29748.42	0.19297	2742481.0	2416964.0	1342605.0	0.126351	0.587900
     29748.93	0.12885	1829038.0	1612153.0	895908.0	0.126220	0.587488
     29749.44	0.080842	1144617.0	1008924.0	560600.0	0.126186	0.587632
     29749.95	0.11147	1565707.0	1380373.0	766926.0	0.125984	0.587719
     29750.45	0.13542	1902083.0	1676504.0	931935.0	0.126239	0.587203
     29750.96	0.13633	1928013.0	1699474.0	944972.0	0.126171	0.586919
     29751.47	0.13601	1928487.0	1699798.0	944898.0	0.126226	0.587188
     29751.98	0.13633	1922636.0	1695499.0	942679.0	0.125720	0.587007
     29752.49	0.13629	1945364.0	1715081.0	953930.0	0.125989	0.586625
     29753.00	0.13816	1960060.0	1728030.0	960811.0	0.125993	0.586960
     29753.51	0.099211	1406139.0	1239687.0	689458.0	0.125989	0.586708
     29754.02	0.11953	1696636.0	1495962.0	832109.0	0.125878	0.586561
     29754.53	0.12901	1815409.0	1600410.0	890527.0	0.126051	0.586202
     29755.04	0.12185	1734888.0	1529738.0	851007.0	0.125846	0.586431
     29755.55	0.12523	1771210.0	1561651.0	868748.0	0.125919	0.586446
     29756.06	0.11857	1678563.0	1480186.0	823355.0	0.125770	0.586536
     29756.57	0.13933	1979651.0	1745841.0	971621.0	0.125684	0.586026
     29757.07	0.13152	1852390.0	1633574.0	909146.0	0.125706	0.586020
     29757.58	0.11489	1627823.0	1435221.0	798901.0	0.125925	0.585837
     29758.09	0.11477	1636856.0	1443565.0	803642.0	0.125662	0.585717
     29758.60	0.11548	1624524.0	1432525.0	797563.0	0.125776	0.585633
     29759.11	0.13646	1909365.0	1684303.0	937687.0	0.125419	0.585691
     29759.62	0.11252	1593347.0	1405546.0	783058.0	0.125411	0.584974
     29760.13	0.12965	1851735.0	1632981.0	909521.0	0.125716	0.585244
     29760.64	0.11224	1590246.0	1402006.0	781029.0	0.125985	0.585047
     29761.15	0.11698	1653870.0	1458276.0	812381.0	0.125863	0.585041
     29761.66	0.12666	1792864.0	1580964.0	881043.0	0.125780	0.584684
     29762.17	0.11587	1635641.0	1443135.0	804045.0	0.125217	0.584918
     29762.68	0.13749	1951946.0	1721781.0	959305.0	0.125468	0.584905
     29763.19	0.13145	1859022.0	1640167.0	914144.0	0.125252	0.584565
     29763.70	0.12886	1822161.0	1607216.0	895728.0	0.125520	0.584622
     29764.21	0.12057	1707770.0	1506764.0	839864.0	0.125224	0.584480
     29764.72	0.13363	1889141.0	1666756.0	929060.0	0.125243	0.584461
     29765.23	0.12349	1749019.0	1543205.0	859975.0	0.125194	0.584713
     29765.74	0.11952	1684542.0	1486271.0	828516.0	0.125223	0.584389
     29766.25	0.12864	1822945.0	1608148.0	896627.0	0.125370	0.584199
     29766.76	0.13160	1848057.0	1630889.0	909171.0	0.125010	0.584347
     29767.26	0.12421	1736363.0	1532386.0	854661.0	0.124967	0.583876
     29767.77	0.12005	1698417.0	1498306.0	835800.0	0.125362	0.583701
     29768.28	0.12733	1789096.0	1579016.0	880557.0	0.124909	0.584002
     29768.79	0.13127	1852377.0	1634721.0	911942.0	0.124998	0.583651
     29769.30	0.12660	1790174.0	1580082.0	881191.0	0.124836	0.583958
     29769.81	0.12767	1791806.0	1581345.0	882258.0	0.124948	0.583546
     29770.32	0.12878	1812594.0	1599647.0	892559.0	0.124976	0.583446
     29770.83	0.13817	1950138.0	1721348.0	960577.0	0.124792	0.583329
     29771.34	0.13036	1851971.0	1634537.0	912116.0	0.124891	0.583348
     29771.85	0.12944	1827576.0	1612609.0	899747.0	0.125137	0.583495
     29772.36	0.11715	1655849.0	1461511.0	815619.0	0.124843	0.583279
     29772.87	0.13970	1975243.0	1743417.0	972683.0	0.124844	0.583544
     29773.38	0.12355	1745287.0	1540614.0	859854.0	0.124738	0.583174
     29773.89	0.12828	1827436.0	1612715.0	900316.0	0.124995	0.582929
     29774.40	0.12547	1777030.0	1568387.0	875557.0	0.124896	0.582943
     29774.91	0.12259	1741356.0	1537077.0	858451.0	0.124782	0.582508
     29775.42	0.12650	1796347.0	1585881.0	885792.0	0.124615	0.582413
     29775.93	0.12325	1749484.0	1544469.0	862542.0	0.124641	0.582552
     29776.44	0.12310	1738742.0	1535167.0	857967.0	0.124523	0.581829
     29776.95	0.11002	1551683.0	1370201.0	765446.0	0.124383	0.582254
     29777.46	0.12518	1777189.0	1569168.0	876571.0	0.124487	0.582283
     29777.97	0.11869	1675541.0	1479451.0	826612.0	0.124465	0.582091
     29778.48	0.11699	1660553.0	1466157.0	819124.0	0.124506	0.582164
     29778.99	0.11033	1573156.0	1389110.0	776122.0	0.124421	0.582109
     29779.50	0.11276	1601315.0	1414110.0	790275.0	0.124325	0.581875
     29780.01	0.12524	1766141.0	1559419.0	871462.0	0.124484	0.581896
     29780.52	0.13238	1880482.0	1660790.0	928077.0	0.124235	0.581934
     29781.03	0.10446	1473897.0	1301797.0	727604.0	0.124164	0.581744
     29781.54	0.097543	1385662.0	1223490.0	683971.0	0.124471	0.581547
     29782.05	0.13447	1909308.0	1686291.0	942529.0	0.124209	0.581720
     29782.56	0.14242	2009539.0	1774399.0	992541.0	0.124444	0.580949
     29783.07	0.12722	1798489.0	1588418.0	887941.0	0.124208	0.581589
     29783.58	0.12433	1751442.0	1546913.0	865172.0	0.124178	0.581088
     29784.09	0.15303	2166391.0	1913625.0	1069845.0	0.124063	0.581486
     29784.60	0.11681	1655133.0	1461633.0	817619.0	0.124327	0.580913
     29785.12	0.11735	1666527.0	1472540.0	823335.0	0.123753	0.581381
     29785.63	0.12413	1749798.0	1546057.0	864849.0	0.123793	0.580908
     29786.14	0.14114	2006863.0	1772795.0	991594.0	0.124015	0.580999
     29786.65	0.12081	1698437.0	1500384.0	839584.0	0.123987	0.580570
     29787.16	0.13420	1910078.0	1687208.0	943773.0	0.124069	0.580945
     29787.67	0.13465	1909133.0	1686558.0	943504.0	0.123959	0.580844
     29788.18	0.13141	1859007.0	1642999.0	919263.0	0.123519	0.580706
     29788.69	0.12373	1753337.0	1549125.0	866889.0	0.123831	0.580535
     29789.20	0.13567	1929795.0	1705358.0	954174.0	0.123639	0.580684
     29789.71	0.13214	1868918.0	1651019.0	924261.0	0.123967	0.580153
     29790.22	0.14098	1995348.0	1762998.0	987202.0	0.123803	0.579896
     29790.73	0.13062	1847133.0	1632118.0	913430.0	0.123756	0.580427
     29791.24	0.13130	1864409.0	1647349.0	922338.0	0.123777	0.580011
     29791.75	0.12631	1787236.0	1579271.0	884342.0	0.123707	0.579875
     29792.26	0.12724	1803895.0	1594266.0	892377.0	0.123535	0.580280
     29792.77	0.12931	1830036.0	1617128.0	905464.0	0.123684	0.579959
     29793.28	0.12106	1705300.0	1507071.0	843935.0	0.123573	0.579848
     29793.79	0.12752	1808449.0	1598157.0	895019.0	0.123618	0.579761
     29794.30	0.12899	1824328.0	1612436.0	903216.0	0.123466	0.579540
     29794.81	0.12559	1782660.0	1575426.0	882339.0	0.123581	0.579705
     29795.32	0.12691	1797758.0	1589146.0	890305.0	0.123344	0.579388
     29795.84	0.11873	1684180.0	1488345.0	834179.0	0.123614	0.578972
     29796.35	0.13443	1900695.0	1679836.0	941249.0	0.123523	0.579244
     29796.86	0.11523	1635358.0	1445253.0	809737.0	0.123577	0.579330
     29797.37	0.12058	1704951.0	1507317.0	844909.0	0.123205	0.578858
     29797.88	0.13113	1850847.0	1636103.0	917280.0	0.123326	0.578660
     29798.39	0.12307	1730423.0	1529889.0	857964.0	0.123171	0.578388
     29798.90	0.10828	1529559.0	1352133.0	758185.0	0.123296	0.578511
     29799.41	0.13138	1858815.0	1643264.0	921358.0	0.123255	0.578591
     29799.92	0.11630	1644462.0	1453777.0	815535.0	0.123248	0.578076
     29800.43	0.12059	1704524.0	1507153.0	844906.0	0.123063	0.578752
     29800.94	0.11471	1620733.0	1432861.0	803602.0	0.123205	0.578324
     29801.45	0.12573	1763716.0	1559090.0	874459.0	0.123321	0.578252
     29801.97	0.13529	1914140.0	1692203.0	949102.0	0.123237	0.578270
     29802.48	0.11110	1563875.0	1382985.0	776047.0	0.122923	0.577786
     29802.99	0.13847	1954097.0	1727868.0	969361.0	0.123040	0.578006
     29803.50	0.12439	1746305.0	1544262.0	866620.0	0.122956	0.577701
     29804.01	0.13775	1953698.0	1727491.0	969755.0	0.123054	0.577382
     29804.52	0.12545	1763503.0	1559130.0	875104.0	0.123174	0.577541
     29805.03	0.11682	1658622.0	1466705.0	823079.0	0.122969	0.577721
     29805.54	0.13000	1818571.0	1608208.0	902981.0	0.122931	0.577174
     29806.05	0.13222	1865091.0	1649664.0	926073.0	0.122738	0.577374
     29806.56	0.11921	1681283.0	1486692.0	834799.0	0.123004	0.577118
     29807.07	0.12504	1761075.0	1557437.0	874388.0	0.122883	0.577273
     29807.59	0.12387	1756391.0	1553634.0	872608.0	0.122664	0.576866
     29808.10	0.19131	2700772.0	2388505.0	1341572.0	0.122870	0.576826
     29808.61	0.12497	1765118.0	1561146.0	877098.0	0.122797	0.576557
     29809.12	0.085111	1208206.0	1068688.0	600255.0	0.122705	0.576832
     29809.63	0.10626	1507443.0	1333030.0	749059.0	0.122960	0.576392
     29810.14	0.13706	1943092.0	1718556.0	966163.0	0.122796	0.575907
     29810.65	0.13168	1860944.0	1646058.0	925198.0	0.122701	0.576131
     29811.16	0.16901	2396927.0	2120197.0	1191736.0	0.122678	0.576098
     29811.68	0.086744	1219971.0	1079108.0	606565.0	0.122692	0.576078
     29812.19	0.14000	1980944.0	1752338.0	985342.0	0.122623	0.575717
     29812.70	0.10934	1549466.0	1370714.0	770699.0	0.122579	0.575789
     29813.21	0.12436	1766170.0	1562342.0	878597.0	0.122627	0.575615
     29813.72	0.12943	1831766.0	1621133.0	911791.0	0.122155	0.575470
     29814.23	0.12197	1728647.0	1529513.0	860601.0	0.122390	0.575074
     29814.74	0.12917	1832142.0	1620843.0	911887.0	0.122539	0.575186
     29815.25	0.14726	2087429.0	1847098.0	1039264.0	0.122317	0.575103
     29815.77	0.10817	1531701.0	1355299.0	762798.0	0.122357	0.574784
     29816.28	0.13920	1972456.0	1745235.0	982200.0	0.122390	0.574850
     29816.79	0.096324	1358308.0	1201960.0	676349.0	0.122286	0.575000
     29817.30	0.11697	1658434.0	1467545.0	826239.0	0.122283	0.574462
     29817.81	0.11505	1627991.0	1440889.0	811158.0	0.122086	0.574553
     29818.32	0.11988	1699713.0	1504506.0	847083.0	0.121995	0.574421
     29818.83	0.11496	1630043.0	1442614.0	812365.0	0.122150	0.574262
     29819.35	0.12948	1834314.0	1623480.0	914605.0	0.122099	0.573835
     29819.86	0.11909	1685609.0	1491887.0	840291.0	0.122085	0.574049
     29820.37	0.13230	1872709.0	1657901.0	934069.0	0.121834	0.573757
     29820.88	0.094463	1335881.0	1182407.0	666112.0	0.122039	0.573850
     29821.39	0.11795	1665554.0	1474250.0	830593.0	0.122008	0.573765
     29821.90	0.12098	1705748.0	1510125.0	850906.0	0.121811	0.573646
     29822.42	0.13340	1887431.0	1670937.0	941547.0	0.121832	0.573616
     29822.93	0.12856	1813303.0	1605264.0	904927.0	0.121862	0.573189
     29823.44	0.13705	1935024.0	1712997.0	965529.0	0.121875	0.573324
     29823.95	0.17889	2520272.0	2231181.0	1257469.0	0.121836	0.573430
     29824.46	0.098079	1389821.0	1230333.0	693755.0	0.121890	0.572921
     29824.97	0.10377	1467510.0	1299109.0	732528.0	0.121888	0.572932
     29825.49	0.13372	1888188.0	1671420.0	943021.0	0.121944	0.572340
     29826.00	0.11672	1648840.0	1460029.0	823500.0	0.121616	0.572648
     29826.51	0.14125	1990253.0	1762704.0	994116.0	0.121413	0.572750
     29827.02	0.12161	1721962.0	1524879.0	860772.0	0.121549	0.571841
     29827.53	0.14541	2059367.0	1823080.0	1028569.0	0.121871	0.572359
     29828.04	0.14052	1988350.0	1760538.0	993445.0	0.121686	0.572196
     29828.56	0.10722	1519668.0	1345888.0	759485.0	0.121438	0.572169
     29829.07	0.13507	1905756.0	1687575.0	952460.0	0.121586	0.572000
     29829.58	0.12544	1770142.0	1567325.0	884583.0	0.121689	0.572009
     29830.09	0.13594	1915995.0	1696647.0	958089.0	0.121583	0.571469
     29830.60	0.13355	1891496.0	1675478.0	945984.0	0.121270	0.571628
     29831.11	0.13329	1882277.0	1667032.0	941513.0	0.121437	0.571312
     29831.63	0.13185	1858285.0	1645585.0	929815.0	0.121558	0.570866
     29832.14	0.13171	1856039.0	1643948.0	928308.0	0.121344	0.571492
     29832.65	0.13687	1933063.0	1711991.0	967116.0	0.121449	0.571094
     29833.16	0.11595	1635657.0	1448638.0	818359.0	0.121421	0.571078
     29833.67	0.13255	1875547.0	1661179.0	938878.0	0.121373	0.570597
     29834.19	0.11905	1682997.0	1490786.0	842432.0	0.121273	0.570766
     29834.70	0.12289	1729791.0	1532123.0	865888.0	0.121346	0.570654
     29835.21	0.12777	1805042.0	1598869.0	903736.0	0.121287	0.570515
     29835.72	0.12566	1776385.0	1573999.0	890199.0	0.120961	0.569930
     29836.23	0.13214	1861314.0	1649049.0	932634.0	0.121084	0.569941
     29836.75	0.11909	1685613.0	1493429.0	844702.0	0.121054	0.569846
     29837.26	0.12148	1714266.0	1518970.0	858783.0	0.120953	0.570271
     29837.77	0.12878	1817689.0	1610455.0	911076.0	0.121049	0.569646
     29838.28	0.11987	1683737.0	1491953.0	844102.0	0.120930	0.569568
     29838.80	0.11544	1622348.0	1437291.0	813457.0	0.121114	0.569222
     29839.31	0.13326	1873460.0	1660020.0	938960.0	0.120957	0.569812
     29839.82	0.11067	1563188.0	1384974.0	783955.0	0.121046	0.569085
     29840.33	0.12754	1802523.0	1597224.0	904053.0	0.120920	0.569134
     29840.84	0.11250	1584351.0	1403906.0	794633.0	0.120917	0.569133
     29841.36	0.12182	1711327.0	1516491.0	858362.0	0.120870	0.569128
     29841.87	0.13041	1833702.0	1624815.0	920014.0	0.120943	0.568760
     29842.38	0.11545	1623933.0	1439165.0	815297.0	0.120788	0.568266
     29842.89	0.13712	1926600.0	1707537.0	967002.0	0.120705	0.568607
     29843.41	0.12796	1794072.0	1589934.0	900525.0	0.120795	0.568470
     29843.92	0.12382	1741102.0	1542929.0	874049.0	0.120836	0.568301
     29844.43	0.13717	1930163.0	1710925.0	969280.0	0.120570	0.568236
     29844.94	0.12021	1689374.0	1497159.0	848490.0	0.120789	0.567866
     29845.46	0.12535	1758248.0	1558054.0	883021.0	0.120880	0.567844
     29845.97	0.12827	1798539.0	1594428.0	903933.0	0.120460	0.567515
     29846.48	0.12438	1749570.0	1551095.0	879574.0	0.120409	0.567279
     29846.99	0.12312	1731460.0	1534836.0	870658.0	0.120541	0.566930
     29847.50	0.12604	1775872.0	1574317.0	892893.0	0.120470	0.567110
     29848.02	0.12577	1772596.0	1571449.0	891018.0	0.120447	0.567389
     29848.53	0.11894	1653703.0	1465908.0	831637.0	0.120542	0.566834
     29849.04	0.13039	1823399.0	1616594.0	917119.0	0.120381	0.566840
     29849.56	0.12837	1792230.0	1588886.0	901252.0	0.120428	0.567004
     29850.07	0.12223	1714840.0	1520123.0	862654.0	0.120529	0.566533
     29850.58	0.12991	1825201.0	1618255.0	918597.0	0.120342	0.566256
     29851.09	0.14265	2005314.0	1778063.0	1009248.0	0.120276	0.566319
     29851.61	0.11755	1637754.0	1452144.0	824182.0	0.120285	0.566405
     29852.12	0.13730	1903611.0	1687639.0	958050.0	0.120422	0.566186
     29852.63	0.13080	1823701.0	1617023.0	918014.0	0.120281	0.566129
     29853.14	0.12147	1698681.0	1506510.0	855533.0	0.120056	0.565826
     29853.66	0.13138	1835061.0	1627250.0	923823.0	0.120186	0.566126
     29854.17	0.12418	1738478.0	1542087.0	875773.0	0.119873	0.565785
     29854.68	0.13318	1875879.0	1663363.0	944875.0	0.120236	0.565544
     29855.19	0.12259	1727827.0	1532244.0	870213.0	0.120131	0.565751
     29855.71	0.12587	1771963.0	1571087.0	892709.0	0.120320	0.565262
     29856.22	0.12563	1766579.0	1566801.0	890340.0	0.120009	0.565188
     29856.73	0.11194	1571745.0	1393890.0	791912.0	0.120088	0.565403
     29857.25	0.13780	1933308.0	1714811.0	974724.0	0.119930	0.564904
     29857.76	0.12298	1721258.0	1526304.0	867395.0	0.120206	0.565110
     29858.27	0.11142	1563944.0	1386935.0	788386.0	0.120115	0.564864
     29858.78	0.11922	1675139.0	1485613.0	844805.0	0.120069	0.564477
     29859.30	0.11463	1608919.0	1427506.0	811591.0	0.119634	0.564688
     29859.81	0.11833	1667516.0	1479246.0	841505.0	0.119803	0.564096
     29860.32	0.12994	1826325.0	1620101.0	921577.0	0.119817	0.564157
     29860.84	0.094885	1325771.0	1176153.0	668872.0	0.119745	0.564412
     29861.35	0.12481	1758930.0	1560411.0	887602.0	0.119756	0.564181
     29861.86	0.11538	1621220.0	1438279.0	818109.0	0.119732	0.564207
     29862.37	0.11846	1665185.0	1477249.0	840382.0	0.119755	0.564080
     29862.89	0.13236	1861905.0	1652225.0	940101.0	0.119477	0.563891
     29863.40	0.12268	1715145.0	1521604.0	865757.0	0.119733	0.563916
     29863.91	0.13896	1943700.0	1724491.0	981596.0	0.119661	0.563507
     29864.43	0.11740	1649158.0	1463371.0	832950.0	0.119522	0.563524
     29864.94	0.12955	1813982.0	1609478.0	916351.0	0.119615	0.563266
     29865.45	0.13213	1856752.0	1647829.0	938426.0	0.119370	0.563010
     29865.97	0.12629	1767646.0	1567853.0	893091.0	0.119942	0.562774
     29866.48	0.13645	1915866.0	1700110.0	968544.0	0.119477	0.562654
     29866.99	0.11655	1634213.0	1450295.0	825883.0	0.119394	0.563069
     29867.50	0.14115	1986312.0	1762645.0	1004137.0	0.119464	0.562687
     29868.02	0.11952	1681096.0	1492011.0	850069.0	0.119321	0.562563
     29868.53	0.13178	1850588.0	1642124.0	935792.0	0.119513	0.562353
     29869.04	0.12997	1807716.0	1604194.0	914100.0	0.119443	0.562437
     29869.56	0.13806	1935264.0	1717553.0	978637.0	0.119343	0.562495
     29870.07	0.12987	1812293.0	1608193.0	916835.0	0.119482	0.561939
     29870.58	0.13218	1847459.0	1639812.0	934886.0	0.119230	0.561912
     29871.10	0.13162	1831158.0	1625236.0	926209.0	0.119296	0.562308
     29871.61	0.13871	1931935.0	1715404.0	977841.0	0.118873	0.562057
     29872.12	0.12714	1766953.0	1568450.0	894180.0	0.119169	0.561936
     29872.64	0.13232	1830302.0	1624960.0	926781.0	0.118998	0.561521
     29873.15	0.13054	1808729.0	1605743.0	915643.0	0.119038	0.561715
     29873.66	0.13687	1892551.0	1680288.0	958594.0	0.118960	0.561253
     29874.18	0.12875	1789435.0	1588553.0	906253.0	0.119076	0.561260
     29874.69	0.12151	1697420.0	1506849.0	859346.0	0.119089	0.561604
     29875.20	0.12446	1739009.0	1544187.0	880849.0	0.118818	0.561367
     29875.72	0.13489	1870101.0	1660347.0	947129.0	0.118966	0.561347
     29876.23	0.11800	1628732.0	1446397.0	825338.0	0.118726	0.561038
     29876.74	0.12721	1756223.0	1559055.0	889776.0	0.119086	0.560865
     29877.26	0.12203	1686310.0	1497224.0	854903.0	0.118930	0.560380
     29877.77	0.11837	1631512.0	1448406.0	826439.0	0.119044	0.561093
     29878.29	0.13005	1816108.0	1612892.0	920536.0	0.118667	0.560828
     29878.80	0.13470	1879763.0	1669389.0	952825.0	0.118688	0.560782
     29879.31	0.11861	1650580.0	1466172.0	837247.0	0.118472	0.560291
     29879.83	0.11824	1643544.0	1459401.0	833278.0	0.118829	0.560414
     29880.34	0.12049	1680544.0	1492689.0	852571.0	0.118538	0.560078
     29880.85	0.12122	1687762.0	1498910.0	855919.0	0.118665	0.560318
     29881.37	0.11770	1636936.0	1453812.0	830563.0	0.118637	0.559841
     29881.88	0.12498	1711914.0	1520771.0	868815.0	0.118395	0.559843
     29882.39	0.10955	1522527.0	1352549.0	772325.0	0.118380	0.560341
     29882.91	0.12135	1681967.0	1494152.0	853826.0	0.118405	0.559587
     29883.42	0.12490	1718611.0	1527006.0	872473.0	0.118207	0.559733
     29883.94	0.12251	1695019.0	1505487.0	860398.0	0.118578	0.559477
     29884.45	0.13131	1799987.0	1599081.0	913730.0	0.118350	0.559649
     29884.96	0.13778	1889448.0	1678582.0	959369.0	0.118335	0.559429
     29885.48	0.12866	1776456.0	1578373.0	902195.0	0.118226	0.559319
     29885.99	0.12105	1670748.0	1484663.0	848550.0	0.118084	0.559414
     29886.50	0.13028	1791825.0	1591908.0	910589.0	0.118301	0.558597
     29887.02	0.11901	1650354.0	1466319.0	838578.0	0.118235	0.558803
     29887.53	0.13211	1824487.0	1621319.0	927152.0	0.118059	0.558878
     29888.05	0.12351	1717021.0	1525940.0	872591.0	0.117980	0.558899
     29888.56	0.12827	1765959.0	1568885.0	897398.0	0.118329	0.558621
     29889.07	0.12649	1759628.0	1563191.0	894042.0	0.118373	0.558732
     29889.59	0.12086	1671620.0	1485807.0	849798.0	0.117835	0.558715
     29890.10	0.12632	1762947.0	1566754.0	896292.0	0.117981	0.558495
     29890.62	0.12733	1757525.0	1561464.0	893429.0	0.118283	0.558312
     29891.13	0.13659	1889530.0	1679278.0	960803.0	0.117964	0.558350
     29891.64	0.11878	1644234.0	1461430.0	836289.0	0.117859	0.558196
     29892.16	0.13284	1816830.0	1614585.0	924386.0	0.118015	0.557704
     29892.67	0.13756	1878243.0	1669179.0	955744.0	0.118005	0.557597
     29893.19	0.13006	1804243.0	1603674.0	917947.0	0.117844	0.557913
     29893.70	0.14353	1989499.0	1768355.0	1012303.0	0.117833	0.557822
     29894.21	0.11557	1584018.0	1407843.0	806002.0	0.117906	0.557728
     29894.73	0.12419	1711794.0	1521624.0	871584.0	0.117764	0.557221
     29895.24	0.12169	1682444.0	1495581.0	856465.0	0.117733	0.557457
     29895.76	0.12723	1748663.0	1554026.0	890280.0	0.118003	0.557068
     29896.27	0.12812	1773314.0	1576163.0	903286.0	0.117857	0.556709
     29896.78	0.12330	1710864.0	1520699.0	871401.0	0.117828	0.556823
     29897.30	0.14208	1972727.0	1753711.0	1004716.0	0.117683	0.557029
     29897.81	0.12944	1793176.0	1594051.0	913239.0	0.117710	0.557036
     29898.33	0.12657	1752013.0	1557545.0	892407.0	0.117655	0.556944
     29898.84	0.10386	1437563.0	1277951.0	732599.0	0.117691	0.556415
     29899.36	0.12353	1721655.0	1531215.0	877226.0	0.117224	0.557052
     29899.87	0.11514	1588067.0	1412078.0	809538.0	0.117455	0.556354
     29900.38	0.12286	1698182.0	1509847.0	865516.0	0.117550	0.556438
     29900.90	0.11779	1632268.0	1450942.0	832117.0	0.117757	0.555995
     29901.41	0.11730	1618011.0	1438968.0	824869.0	0.117271	0.556457
     29901.93	0.13451	1870513.0	1662938.0	953173.0	0.117627	0.556545
     29902.44	0.13215	1819584.0	1617628.0	927482.0	0.117647	0.556243
     29902.96	0.085904	1182448.0	1051538.0	603157.0	0.117333	0.555832
     29903.47	0.11517	1568890.0	1394891.0	800211.0	0.117552	0.555696
     29903.98	0.12725	1761651.0	1566556.0	898570.0	0.117372	0.555830
     29904.50	0.11796	1631784.0	1450802.0	832124.0	0.117557	0.555890
     29905.01	0.12871	1780687.0	1583787.0	908500.0	0.117180	0.555779
     29905.53	0.12560	1740392.0	1547227.0	887815.0	0.117646	0.555456
     29906.04	0.13004	1782832.0	1586240.0	910195.0	0.116837	0.555463
     29906.56	0.15049	2067816.0	1839436.0	1055353.0	0.117034	0.555584
     29907.07	0.10656	1470949.0	1308346.0	750864.0	0.117144	0.555294
     29907.59	0.13019	1795658.0	1597154.0	916955.0	0.117148	0.554920
     29908.10	0.13254	1816738.0	1616441.0	928313.0	0.116816	0.554613
     29908.62	0.12139	1676533.0	1491647.0	856111.0	0.116847	0.555236
     29909.13	0.12104	1655951.0	1473108.0	845592.0	0.117001	0.555093
     29909.64	0.13690	1895664.0	1686812.0	968266.0	0.116729	0.555089
     29910.16	0.18644	2565250.0	2282157.0	1310730.0	0.116935	0.554537
     29910.67	0.10645	1464507.0	1303268.0	748373.0	0.116644	0.554729
     29911.19	0.096931	1334879.0	1187369.0	682041.0	0.117101	0.554405
     29911.70	0.12974	1792120.0	1594905.0	915916.0	0.116585	0.554645
     29912.22	0.14227	1962281.0	1745826.0	1003284.0	0.116880	0.553949
     29912.73	0.13137	1814776.0	1614529.0	927886.0	0.116919	0.553890
     29913.25	0.14186	1962382.0	1746390.0	1003557.0	0.116608	0.554000
     29913.76	0.12909	1769800.0	1574860.0	904935.0	0.116700	0.554059
     29914.28	0.13797	1878031.0	1671608.0	960894.0	0.116438	0.553677
     29914.79	0.14537	1981779.0	1763394.0	1013820.0	0.116755	0.553515
     29915.31	0.11011	1494673.0	1330078.0	765070.0	0.116670	0.553026
     29915.82	0.13041	1774740.0	1579361.0	907912.0	0.116634	0.553628
     29916.34	0.12189	1670021.0	1486147.0	854706.0	0.116649	0.553185
     29916.85	0.12314	1674630.0	1490080.0	856682.0	0.116762	0.553518
     29917.37	0.12597	1722214.0	1532917.0	881810.0	0.116438	0.552951
     29917.88	0.12473	1706583.0	1519123.0	873434.0	0.116360	0.553456
     29918.40	0.12928	1776250.0	1580697.0	909478.0	0.116639	0.552750
     29918.91	0.13498	1857672.0	1653903.0	951260.0	0.116186	0.553106
     29919.43	0.10375	1422991.0	1266569.0	728677.0	0.116449	0.552836
     29919.94	0.13073	1789623.0	1592951.0	916538.0	0.116417	0.552740
     29920.46	0.11346	1559946.0	1388583.0	799059.0	0.116367	0.552604
     29920.97	0.12707	1736585.0	1546124.0	890128.0	0.116169	0.552141
     29921.49	0.11640	1607575.0	1431234.0	823967.0	0.116190	0.552162
     29922.00	0.12715	1748633.0	1556665.0	896096.0	0.116289	0.552253
     29922.52	0.10954	1497531.0	1333428.0	767612.0	0.116065	0.552224
     29923.03	0.12833	1748043.0	1556440.0	896010.0	0.116096	0.552205
     29923.55	0.12872	1760794.0	1567912.0	902552.0	0.116020	0.552274
     29924.06	0.10996	1508717.0	1342837.0	773260.0	0.116475	0.551924
     29924.58	0.12291	1680764.0	1496197.0	861856.0	0.116322	0.551594
     29925.09	0.12442	1700892.0	1514650.0	872287.0	0.115968	0.551821
     29925.61	0.12376	1705752.0	1518359.0	874805.0	0.116376	0.551384
     29926.12	0.13196	1805928.0	1608732.0	926954.0	0.115628	0.551298
     29926.64	0.11483	1571035.0	1399030.0	806161.0	0.115955	0.551251
     29927.15	0.12308	1691530.0	1506210.0	868024.0	0.116037	0.551132
     29927.67	0.13415	1848779.0	1646358.0	948783.0	0.115960	0.551141
     29928.18	0.13391	1831656.0	1631404.0	940078.0	0.115779	0.551233
     29928.70	0.12418	1712353.0	1525046.0	879426.0	0.115844	0.550510
     29929.21	0.12568	1730665.0	1541653.0	888628.0	0.115651	0.550932
     29929.73	0.12788	1756777.0	1564818.0	902120.0	0.115711	0.550777
     29930.24	0.11984	1651426.0	1471011.0	848358.0	0.115689	0.550402
     29930.76	0.12324	1694569.0	1509484.0	870373.0	0.115661	0.550601
     29931.27	0.12486	1716294.0	1528700.0	881643.0	0.115750	0.550386
     29931.79	0.12304	1695991.0	1510771.0	871216.0	0.115647	0.550485
     29932.31	0.12979	1789151.0	1593635.0	919473.0	0.115724	0.549972
     29932.82	0.12147	1673086.0	1490617.0	859726.0	0.115480	0.550332
     29933.34	0.13417	1847268.0	1645588.0	949186.0	0.115610	0.550248
     29933.85	0.12921	1777071.0	1583029.0	913203.0	0.115626	0.550137
     29934.37	0.13626	1858357.0	1655426.0	955449.0	0.115634	0.549632
     29934.88	0.12737	1755639.0	1563876.0	902629.0	0.115666	0.549611
     29935.40	0.12864	1736008.0	1547083.0	893052.0	0.115217	0.549482
     29935.91	0.12879	1766645.0	1574550.0	908970.0	0.115113	0.549413
     29936.43	0.12431	1714639.0	1527474.0	881507.0	0.115587	0.549738
     29936.94	0.13101	1793206.0	1597879.0	922341.0	0.115328	0.549517
     29937.46	0.12753	1745514.0	1555113.0	897846.0	0.115501	0.549305
     29937.98	0.13059	1781294.0	1587493.0	916580.0	0.115184	0.549262
     29938.49	0.11922	1623147.0	1446235.0	835179.0	0.115403	0.549073
     29939.01	0.12731	1732881.0	1543937.0	892114.0	0.115450	0.548497
     29939.52	0.12190	1656695.0	1476399.0	853055.0	0.115219	0.548537
     29940.04	0.12707	1722892.0	1535288.0	886803.0	0.115286	0.548850
     29940.55	0.13444	1841655.0	1641299.0	948223.0	0.115177	0.548654
     29941.07	0.11264	1543552.0	1375646.0	795028.0	0.115163	0.548301
     29941.59	0.11746	1614364.0	1438837.0	831741.0	0.115106	0.548069
     29942.10	0.11980	1655666.0	1475613.0	852879.0	0.115130	0.548211
     29942.62	0.11550	1587816.0	1415151.0	817909.0	0.115123	0.548240
     29943.13	0.11652	1608153.0	1433453.0	828657.0	0.115000	0.548035
     29943.65	0.12081	1656263.0	1476562.0	853617.0	0.114847	0.547989
     29944.16	0.10557	1443998.0	1287153.0	744643.0	0.114983	0.547283
     29944.68	0.11326	1566004.0	1396092.0	807413.0	0.114850	0.547597
     29945.20	0.11746	1619311.0	1443816.0	834884.0	0.114711	0.547752
     29945.71	0.12768	1771110.0	1578916.0	913205.0	0.114868	0.547533
     29946.23	0.13169	1808130.0	1611877.0	932541.0	0.114894	0.547241
     29946.74	0.11791	1633068.0	1455850.0	842282.0	0.114871	0.547230
     29947.26	0.12286	1675371.0	1493574.0	864264.0	0.114863	0.547049
     29947.78	0.13757	1893914.0	1688619.0	976791.0	0.114735	0.547394
     29948.29	0.12517	1731257.0	1543411.0	893108.0	0.114853	0.547043
     29948.81	0.12349	1698188.0	1514247.0	876264.0	0.114644	0.547006
     29949.32	0.13568	1860789.0	1659576.0	960551.0	0.114438	0.546810
     29949.84	0.13404	1844346.0	1644549.0	952194.0	0.114659	0.546453
     29950.36	0.11815	1629097.0	1452878.0	841397.0	0.114479	0.546238
     29950.87	0.13857	1912162.0	1705322.0	987666.0	0.114481	0.546165
     29951.39	0.12699	1743358.0	1554348.0	899998.0	0.114757	0.546419
     29951.90	0.13333	1828569.0	1630886.0	944525.0	0.114410	0.546197
     29952.42	0.12845	1762387.0	1571685.0	910580.0	0.114521	0.545822
     29952.94	0.13082	1809890.0	1613950.0	934674.0	0.114581	0.546242
     29953.45	0.12352	1709262.0	1524325.0	883260.0	0.114510	0.545687
     29953.97	0.13814	1909037.0	1702287.0	986433.0	0.114626	0.545633
     29954.48	0.13506	1869007.0	1666545.0	965940.0	0.114655	0.545406
     29955.00	0.12959	1778334.0	1585932.0	918949.0	0.114505	0.545697
     29955.52	0.12995	1781850.0	1589303.0	921474.0	0.114357	0.545076
     29956.03	0.13509	1867394.0	1666088.0	965594.0	0.114066	0.545490
     29956.55	0.12290	1692853.0	1509951.0	875080.0	0.114338	0.545517
     29957.07	0.12952	1789557.0	1596147.0	925581.0	0.114376	0.544926
     29957.58	0.12842	1773963.0	1582468.0	917259.0	0.114230	0.545351
     29958.10	0.12928	1782470.0	1589635.0	921734.0	0.114496	0.545003
     29958.61	0.12569	1737081.0	1549929.0	898958.0	0.113997	0.544728
     29959.13	0.12517	1725960.0	1539846.0	892920.0	0.114101	0.544941
     29959.65	0.12382	1708070.0	1523577.0	883509.0	0.114303	0.544915
     29960.16	0.11807	1623818.0	1448640.0	840377.0	0.114155	0.544530
     29960.68	0.12714	1744937.0	1557006.0	903537.0	0.113954	0.544203
     29961.20	0.13685	1884189.0	1680875.0	975276.0	0.114183	0.544349
     29961.71	0.11276	1554824.0	1387166.0	805124.0	0.114100	0.544022
     29962.23	0.13162	1814613.0	1619403.0	939803.0	0.113815	0.544143
     29962.75	0.12043	1661544.0	1482641.0	860345.0	0.113922	0.544247
     29963.26	0.12306	1688942.0	1506934.0	874561.0	0.114025	0.544110
     29963.78	0.11881	1635361.0	1459306.0	846877.0	0.113903	0.544161
     29964.30	0.12569	1730466.0	1544062.0	896523.0	0.113974	0.543648
     29964.81	0.11894	1642737.0	1466277.0	851116.0	0.113637	0.543933
     29965.33	0.11929	1646339.0	1469252.0	853341.0	0.113801	0.543349
     29965.84	0.11883	1634978.0	1458799.0	847210.0	0.114016	0.543420
     29966.36	0.11416	1572214.0	1403260.0	814769.0	0.113687	0.543649
     29966.88	0.13277	1827875.0	1631560.0	947902.0	0.113617	0.543041
     29967.39	0.12785	1761476.0	1571625.0	913005.0	0.114042	0.543124
     29967.91	0.12248	1686111.0	1504970.0	874477.0	0.113652	0.542902
     29968.43	0.13866	1916324.0	1710460.0	993620.0	0.113646	0.543163
     29968.94	0.12215	1685809.0	1504849.0	874352.0	0.113553	0.542965
     29969.46	0.12598	1737448.0	1551132.0	901166.0	0.113432	0.543051
     29969.98	0.12857	1766418.0	1576621.0	916490.0	0.113670	0.542488
     29970.49	0.12304	1682887.0	1502515.0	873293.0	0.113370	0.542625
     29971.01	0.13191	1815127.0	1620294.0	942047.0	0.113548	0.542308
     29971.53	0.12065	1665239.0	1486700.0	864764.0	0.113410	0.541858
     29972.04	0.12853	1765754.0	1575971.0	916645.0	0.113706	0.541907
     29972.56	0.13637	1878049.0	1676621.0	975076.0	0.113453	0.542020
     29973.08	0.11802	1627956.0	1453420.0	845438.0	0.113406	0.541820
     29973.60	0.12002	1654287.0	1476609.0	858798.0	0.113622	0.541970
     29974.11	0.12410	1711046.0	1527835.0	889070.0	0.113253	0.541431
     29974.63	0.12134	1668353.0	1489785.0	866671.0	0.113205	0.541728
     29975.15	0.13269	1823223.0	1628023.0	946805.0	0.113239	0.542029
     29975.66	0.12796	1754826.0	1567045.0	912009.0	0.113178	0.541297
     29976.18	0.13701	1884265.0	1682667.0	979407.0	0.113158	0.541188
     29976.70	0.16983	2339757.0	2089264.0	1215768.0	0.113235	0.541436
     29977.21	0.082156	1124187.0	1003832.0	584451.0	0.113235	0.540907
     29977.73	0.12856	1769851.0	1580152.0	919744.0	0.113374	0.541181
     29978.25	0.12797	1758757.0	1571154.0	914540.0	0.112797	0.541144
     29978.76	0.13274	1824439.0	1629288.0	948768.0	0.113129	0.540734
     29979.28	0.12846	1763883.0	1575163.0	917093.0	0.113159	0.540905
     29979.80	0.12906	1771530.0	1582190.0	921430.0	0.113034	0.540638
     29980.32	0.13680	1885076.0	1683334.0	980590.0	0.113192	0.540377
     29980.83	0.18263	2505383.0	2237154.0	1303103.0	0.113237	0.540456
     29981.35	0.092139	1264657.0	1129433.0	658031.0	0.113085	0.540219
     29981.87	0.10336	1415800.0	1264275.0	736878.0	0.113196	0.539832
     29982.38	0.11092	1522273.0	1359748.0	792361.0	0.112905	0.540038
     29982.90	0.10721	1479216.0	1321434.0	770133.0	0.112795	0.539910
     29983.42	0.13524	1853995.0	1656165.0	965095.0	0.112838	0.540033
     29983.94	0.13557	1850512.0	1653306.0	963686.0	0.112685	0.539767
     29984.45	0.11467	1566797.0	1399648.0	815829.0	0.112813	0.539771
     29984.97	0.13781	1893579.0	1691649.0	985851.0	0.112765	0.539954
     29985.49	0.086349	1185114.0	1058895.0	617140.0	0.112613	0.539885
     29986.00	0.11389	1565473.0	1399139.0	815603.0	0.112331	0.539685
     29986.52	0.10893	1502598.0	1342331.0	782524.0	0.112788	0.539638
     29987.04	0.11144	1521592.0	1359458.0	792940.0	0.112671	0.539094
     29987.56	0.11208	1541251.0	1377126.0	803111.0	0.112596	0.539261
     29988.07	0.14879	2044736.0	1826804.0	1065633.0	0.112701	0.538999
     29988.59	0.12786	1749415.0	1563238.0	912158.0	0.112522	0.538701
     29989.11	0.20913	2880089.0	2573558.0	1501297.0	0.112532	0.538960
     29989.63	0.075297	1036499.0	926203.0	540356.0	0.112511	0.538865
     29990.14	0.10283	1412960.0	1262506.0	736944.0	0.112588	0.538342
     29990.66	0.12075	1656800.0	1480027.0	863703.0	0.112828	0.538587
     29991.18	0.12953	1773290.0	1584234.0	924771.0	0.112736	0.538310
     29991.70	0.12732	1731084.0	1547133.0	902886.0	0.112344	0.538563
     29992.21	0.11998	1627831.0	1455210.0	849419.0	0.112098	0.538353
     29992.73	0.13639	1869836.0	1671005.0	975587.0	0.112425	0.538141
     29993.25	0.20423	2785821.0	2489707.0	1453011.0	0.112378	0.538527
     29993.77	0.079565	1088602.0	973084.0	568126.0	0.112179	0.538127
     29994.28	0.11652	1586658.0	1418175.0	828105.0	0.112259	0.537986
     29994.80	0.11084	1504079.0	1344498.0	785399.0	0.112160	0.537584
     29995.32	0.13539	1845515.0	1649585.0	963750.0	0.112235	0.537447
     29995.84	0.12494	1695397.0	1515346.0	884605.0	0.112273	0.538258
     29996.35	0.14835	2019211.0	1805184.0	1054311.0	0.112044	0.537775
     29996.87	0.16510	2239065.0	2001965.0	1169734.0	0.111929	0.537353
     29997.39	0.15141	2058986.0	1840913.0	1075448.0	0.111952	0.537524
     29997.91	0.082316	1112659.0	994629.0	581327.0	0.112138	0.537056
     29998.42	0.11354	1539125.0	1376330.0	804354.0	0.111794	0.537136
     29998.94	0.13524	1834620.0	1640170.0	958665.0	0.112037	0.537013
     29999.46	0.12208	1655505.0	1480232.0	865258.0	0.111907	0.536926
     29999.98	0.12779	1736092.0	1552605.0	907122.0	0.111702	0.537412
     30000.50	0.13270	1803064.0	1612416.0	942513.0	0.111754	0.536939
     30001.01	0.12848	1738549.0	1554360.0	908212.0	0.111987	0.537341
     30001.53	0.11807	1584172.0	1416319.0	828312.0	0.112001	0.536427
     30002.05	0.12239	1632750.0	1460326.0	853585.0	0.111606	0.536970
     30002.57	0.13124	1756030.0	1570313.0	918410.0	0.111781	0.536386
     30003.08	0.13245	1791345.0	1601584.0	936750.0	0.111974	0.536332
     30003.60	0.11714	1570530.0	1404660.0	821477.0	0.111618	0.536447
     30004.12	0.11693	1580615.0	1413400.0	826678.0	0.111816	0.536338
     30004.64	0.12278	1640500.0	1467255.0	858615.0	0.111608	0.535828
     30005.16	0.12455	1693503.0	1514344.0	885937.0	0.111817	0.536092
     30005.67	0.11550	1555297.0	1391112.0	813595.0	0.111563	0.536396
     30006.19	0.12095	1628027.0	1456586.0	852098.0	0.111274	0.536149
     30006.71	0.12195	1653480.0	1478957.0	865748.0	0.111545	0.535499
     30007.23	0.12110	1628500.0	1456534.0	852553.0	0.111600	0.535580
     30007.75	0.12130	1636404.0	1464096.0	856918.0	0.111263	0.535651
     30008.26	0.12583	1680673.0	1503425.0	880053.0	0.111448	0.535519
     30008.78	0.11631	1574512.0	1408577.0	824504.0	0.111365	0.535553
     30009.30	0.13413	1807481.0	1616866.0	946577.0	0.111444	0.535393
     30009.82	0.12931	1741239.0	1557793.0	911772.0	0.111327	0.535635
     30010.34	0.12838	1723625.0	1541894.0	902991.0	0.111418	0.535054
     30010.86	0.13240	1799510.0	1610130.0	942846.0	0.111199	0.535167
     30011.37	0.13045	1749874.0	1565744.0	916883.0	0.111183	0.535137
     30011.89	0.12463	1676694.0	1500145.0	878658.0	0.111262	0.534921
     30012.41	0.13340	1774726.0	1587975.0	930347.0	0.111186	0.534657
     30012.93	0.11570	1548726.0	1385737.0	812016.0	0.111201	0.534467
     30013.45	0.12290	1660008.0	1485469.0	870165.0	0.111092	0.534803
     30013.96	0.12430	1674815.0	1499006.0	878176.0	0.110900	0.534710
     30014.48	0.12974	1737763.0	1554674.0	911142.0	0.111333	0.534322
     30015.00	0.12939	1736155.0	1553831.0	910572.0	0.110949	0.534406
     30015.52	0.12526	1689329.0	1511951.0	886039.0	0.110931	0.534395
     30016.04	0.12660	1681585.0	1505119.0	882504.0	0.110865	0.533864
     30016.56	0.13530	1793799.0	1605474.0	941450.0	0.110917	0.533753
     30017.07	0.12624	1696693.0	1518277.0	889977.0	0.111105	0.534136
     30017.59	0.12936	1749064.0	1565823.0	918242.0	0.110669	0.533706
     30018.11	0.12881	1727560.0	1546332.0	906571.0	0.110824	0.533972
     30018.63	0.12920	1734189.0	1552713.0	910541.0	0.110536	0.533720
     30019.15	0.12780	1712728.0	1532915.0	899297.0	0.110916	0.533313
     30019.67	0.13547	1832274.0	1640031.0	962027.0	0.110843	0.533428
     30020.18	0.12404	1663256.0	1488972.0	873706.0	0.110691	0.533097
     30020.70	0.11993	1622034.0	1452024.0	851711.0	0.110722	0.533466
     30021.22	0.14246	1918799.0	1717824.0	1008144.0	0.110641	0.532947
     30021.74	0.12177	1643558.0	1471311.0	863475.0	0.110710	0.532944
     30022.26	0.11133	1489948.0	1333981.0	783016.0	0.110574	0.532770
     30022.78	0.11870	1585114.0	1418990.0	832971.0	0.110711	0.532702
     30023.30	0.12844	1735391.0	1553659.0	911852.0	0.110620	0.532890
     30023.81	0.11553	1556821.0	1394287.0	818278.0	0.110263	0.532936
     30024.33	0.12575	1695555.0	1518280.0	891403.0	0.110432	0.532537
     30024.85	0.12007	1612166.0	1443852.0	848019.0	0.110264	0.532167
     30025.37	0.14510	1956472.0	1751791.0	1029146.0	0.110504	0.531909
     30025.89	0.099627	1339366.0	1199567.0	704704.0	0.110236	0.531938
     30026.41	0.10081	1357991.0	1216008.0	714185.0	0.110433	0.532187
     30026.93	0.10521	1408622.0	1261306.0	740899.0	0.110464	0.532039
     30027.44	0.12816	1702227.0	1524842.0	895426.0	0.110047	0.532346
     30027.96	0.12119	1625121.0	1455071.0	855265.0	0.110528	0.531399
     30028.48	0.14361	1917121.0	1716984.0	1008631.0	0.110255	0.531975
     30029.00	0.11540	1543034.0	1382305.0	811962.0	0.109998	0.532054
     30029.52	0.14179	1890744.0	1693035.0	995293.0	0.110448	0.531241
     30030.04	0.11386	1513450.0	1355277.0	796677.0	0.110386	0.531312
     30030.56	0.12994	1734080.0	1553285.0	913096.0	0.110105	0.531286
     30031.08	0.11954	1607751.0	1440075.0	846577.0	0.110141	0.531249
     30031.60	0.12751	1695560.0	1518652.0	893252.0	0.110190	0.530710
     30032.11	0.13481	1797535.0	1610095.0	946908.0	0.110123	0.530847
     30032.63	0.13692	1847787.0	1655188.0	973572.0	0.110074	0.530698
     30033.15	0.14765	1971305.0	1766159.0	1038534.0	0.109889	0.530997
     30033.67	0.13395	1795642.0	1608805.0	946205.0	0.109871	0.530788
     30034.19	0.090283	1209093.0	1082874.0	636926.0	0.110252	0.530720
     30034.71	0.13399	1784489.0	1598754.0	940465.0	0.109908	0.530605
     30035.23	0.11675	1553152.0	1391585.0	818882.0	0.109843	0.530259
     30035.75	0.13879	1848353.0	1656135.0	974330.0	0.109808	0.530492
     30036.27	0.13739	1812124.0	1623846.0	955580.0	0.109702	0.530234
     30036.78	0.13635	1819773.0	1630320.0	959740.0	0.109935	0.529869
     30037.30	0.13950	1862372.0	1669235.0	982902.0	0.109486	0.529611
     30037.82	0.13862	1848496.0	1657002.0	975516.0	0.109362	0.529799
     30038.34	0.11669	1559183.0	1397130.0	822670.0	0.109742	0.529620
     30038.86	0.13706	1813909.0	1625511.0	957138.0	0.109662	0.529630
     30039.38	0.11841	1587695.0	1422895.0	837940.0	0.109590	0.529502
     30039.90	0.12439	1671369.0	1497723.0	881736.0	0.109697	0.529809
     30040.42	0.13251	1771572.0	1587788.0	935103.0	0.109525	0.529440
     30040.94	0.12541	1654696.0	1482561.0	873478.0	0.109846	0.529043
     30041.46	0.11786	1579998.0	1416021.0	834236.0	0.109573	0.529090
     30041.98	0.13023	1733791.0	1553896.0	915745.0	0.109545	0.528783
     30042.50	0.11879	1588213.0	1423169.0	838312.0	0.109723	0.529251
     30043.01	0.13028	1758260.0	1575390.0	928208.0	0.109822	0.529002
     30043.53	0.12346	1664061.0	1491565.0	878927.0	0.109435	0.528879
     30044.05	0.12924	1728054.0	1548697.0	912722.0	0.109582	0.528738
     30044.57	0.12041	1616970.0	1449336.0	854269.0	0.109449	0.528615
     30045.09	0.12380	1660143.0	1487973.0	877172.0	0.109489	0.528467
     30045.61	0.12103	1623080.0	1455044.0	857459.0	0.109289	0.528818
     30046.13	0.11226	1497272.0	1342306.0	791691.0	0.109256	0.527973
     30046.65	0.12306	1656539.0	1485301.0	875820.0	0.109113	0.528212
     30047.17	0.11682	1544699.0	1385007.0	816530.0	0.109124	0.528397
     30047.69	0.12136	1617354.0	1450068.0	855191.0	0.109181	0.528041
     30048.21	0.13622	1822046.0	1633690.0	963594.0	0.109119	0.527926
     30048.73	0.12422	1667647.0	1495211.0	881989.0	0.109146	0.527843
     30049.25	0.11465	1534455.0	1376134.0	811797.0	0.108897	0.527783
