# Diamond Light Source
# Instrument: B18-CORE XAS Date: Thu, 28 Jul 2016 02:24:57 BST
# Ring energy:   3.0
# Ring current - start: 299.9
# Primary slits:  vertical gap=  2.4; horizontal gap= 52.0; vertical offset=  0.4; horizontal offset= -1.0
# Secondary slits:  vertical gap=  3.5; horizontal gap= 23.0; vertical offset=  5.3; horizontal offset= -14.5
# OH Mirror Coating: Pt
# White beam filter: 140um PyC
# Crystal cut: Si(311)
# PostDCM slits:  vertical gap= 18.0; horizontal gap= 28.0; vertical offset= -9.1; horizontal offset= -16.5
# Experimental slits:  vertical gap= 28.6; horizontal gap= 45.0; vertical offset=  5.7; horizontal offset= -17.5
# HR Mirror : out; Y: 37.8; Pitch:  0.3; Coating: Pt
# Mirror 2: Pitch:  2.3; Height: -6.4; Yaw: -1.6; Bend:  0.8;
# I0 Stanford sensitivity: 20 nA/V Offsets: 20 pA
# It Stanford sensitivity: 100 nA/V Offsets: 1 pA
# Iref Stanford sensitivity: 20 nA/V Offsets: 1 pA
#
# Ascii output file name: 'Andrea_Sn//ascii/262927_PtSn_OC_H2_Abu_2.dat'
# Nexus output file: '/dls/b18/data/2016/sp10306-9/Andrea_Sn//nexus/262927_PtSn_OC_H2_Abu_2.nxs'
# XML folder and files:
# /dls/b18/data/2016/sp10306-9/xml/Andrea_Sn/
# QEXAFS_Parameters
# Sample_Parameters
# Detector_Parameters
# Output_Parameters
# The contents of these files are also stored in the nexus file.
#
# Sample name: PtSn_OC_H2_Abu
# Sample description: default sample description
# Additional comments: default additional comments
# command: qexafs_energy 29000.0 30050.0 2094 263.53 qexafs_counterTimer01
#
#
# qexafs_energy	   time	       I0	       It	     Iref	  lnI0It	 lnItIref
     29000.24	0.13144	2117763.0	1665772.0	3444785.0	0.240072	-0.726573
     29000.73	0.19948	3207701.0	2523215.0	5218374.0	0.240021	-0.726652
     29001.21	0.11072	1775537.0	1396887.0	2888993.0	0.239857	-0.726662
     29001.69	0.085887	1378118.0	1083879.0	2241135.0	0.240173	-0.726436
     29002.18	0.12485	2006916.0	1579142.0	3265715.0	0.239718	-0.726597
     29002.66	0.13417	2148303.0	1690476.0	3495487.0	0.239668	-0.726463
     29003.14	0.13181	2122700.0	1669614.0	3453218.0	0.240096	-0.726714
     29003.63	0.12826	2063065.0	1622793.0	3355747.0	0.240044	-0.726526
     29004.11	0.12112	1944891.0	1530195.0	3164017.0	0.239811	-0.726447
     29004.59	0.13093	2106678.0	1657305.0	3427933.0	0.239920	-0.726765
     29005.08	0.12414	1997640.0	1571578.0	3251035.0	0.239886	-0.726893
     29005.56	0.12301	1972617.0	1551912.0	3210031.0	0.239873	-0.726793
     29006.05	0.12505	2011673.0	1583299.0	3274073.0	0.239456	-0.726524
     29006.53	0.12647	2038079.0	1603202.0	3316048.0	0.240005	-0.726771
     29007.01	0.13033	2097109.0	1649825.0	3412202.0	0.239891	-0.726689
     29007.50	0.11845	1906088.0	1499592.0	3101864.0	0.239860	-0.726810
     29007.98	0.12887	2074308.0	1632367.0	3376352.0	0.239596	-0.726765
     29008.46	0.12679	2040573.0	1605674.0	3321155.0	0.239687	-0.726769
     29008.95	0.10374	1671310.0	1315260.0	2720355.0	0.239573	-0.726728
     29009.43	0.12462	2004244.0	1577425.0	3262008.0	0.239473	-0.726549
     29009.92	0.11642	1874001.0	1474903.0	3050194.0	0.239483	-0.726613
     29010.40	0.12819	2069638.0	1628626.0	3368256.0	0.239637	-0.726658
     29010.88	0.12324	1990168.0	1566109.0	3238961.0	0.239625	-0.726658
     29011.37	0.13024	2094070.0	1648223.0	3408763.0	0.239412	-0.726652
     29011.85	0.12940	2088307.0	1644105.0	3399731.0	0.239158	-0.726500
     29012.34	0.11830	1909292.0	1502773.0	3107787.0	0.239420	-0.726599
     29012.82	0.12953	2092442.0	1647331.0	3407209.0	0.239175	-0.726737
     29013.30	0.12668	2039339.0	1605136.0	3319296.0	0.239417	-0.726544
     29013.79	0.13599	2199757.0	1731910.0	3582106.0	0.239122	-0.726726
     29014.27	0.13367	2160725.0	1701012.0	3517304.0	0.239220	-0.726471
     29014.76	0.11654	1887589.0	1486019.0	3074055.0	0.239200	-0.726897
     29015.24	0.12868	2080460.0	1638013.0	3387709.0	0.239105	-0.726670
     29015.72	0.12369	2000987.0	1575233.0	3257702.0	0.239237	-0.726619
     29016.21	0.12613	2039477.0	1605425.0	3321029.0	0.239305	-0.726886
     29016.69	0.11970	1935241.0	1523740.0	3152227.0	0.239064	-0.726941
     29017.18	0.12646	2043610.0	1609420.0	3329597.0	0.238844	-0.726977
     29017.66	0.11520	1855347.0	1461069.0	3022024.0	0.238903	-0.726758
     29018.14	0.13447	2169484.0	1708295.0	3533410.0	0.238994	-0.726768
     29018.63	0.12514	2015484.0	1587110.0	3282516.0	0.238945	-0.726695
     29019.11	0.13133	2114271.0	1664516.0	3443141.0	0.239176	-0.726850
     29019.60	0.13764	2217872.0	1746675.0	3612881.0	0.238834	-0.726792
     29020.08	0.13363	2156979.0	1698414.0	3513089.0	0.239014	-0.726801
     29020.57	0.11594	1873784.0	1475483.0	3051429.0	0.238975	-0.726625
     29021.05	0.12537	2021673.0	1592461.0	3293438.0	0.238645	-0.726651
     29021.53	0.13654	2200843.0	1733531.0	3585013.0	0.238680	-0.726602
     29022.02	0.12223	1972008.0	1553212.0	3212885.0	0.238727	-0.726844
     29022.50	0.12958	2091225.0	1647190.0	3406952.0	0.238679	-0.726747
     29022.99	0.12848	2074579.0	1633685.0	3378200.0	0.238920	-0.726505
     29023.47	0.14823	2392139.0	1884346.0	3897653.0	0.238607	-0.726794
     29023.96	0.10296	1663581.0	1310313.0	2709955.0	0.238706	-0.726666
     29024.44	0.11079	1790768.0	1410669.0	2917695.0	0.238581	-0.726730
     29024.92	0.11908	1918356.0	1511142.0	3125771.0	0.238603	-0.726815
     29025.41	0.12574	2031045.0	1600244.0	3309197.0	0.238394	-0.726549
     29025.89	0.12001	1935719.0	1524943.0	3153884.0	0.238522	-0.726678
     29026.38	0.11642	1878035.0	1479753.0	3060880.0	0.238351	-0.726827
     29026.86	0.13195	2127417.0	1676206.0	3466581.0	0.238376	-0.726636
     29027.35	0.10383	1677629.0	1321856.0	2734204.0	0.238345	-0.726804
     29027.83	0.11309	1827071.0	1439826.0	2978094.0	0.238192	-0.726761
     29028.32	0.099876	1613708.0	1271097.0	2629450.0	0.238654	-0.726894
     29028.80	0.12232	1973425.0	1555039.0	3216452.0	0.238270	-0.726778
     29029.28	0.13635	2203466.0	1736304.0	3592135.0	0.238273	-0.726988
     29029.77	0.12716	2053908.0	1618607.0	3347690.0	0.238178	-0.726705
     29030.25	0.11277	1817625.0	1432389.0	2962463.0	0.238187	-0.726677
     29030.74	0.15979	2582049.0	2034523.0	4208039.0	0.238322	-0.726735
     29031.22	0.11055	1787261.0	1408913.0	2914277.0	0.237866	-0.726803
     29031.71	0.11762	1899706.0	1497090.0	3097170.0	0.238176	-0.726966
     29032.19	0.11375	1838022.0	1448321.0	2995795.0	0.238285	-0.726805
     29032.68	0.14579	2352045.0	1854166.0	3834568.0	0.237850	-0.726622
     29033.16	0.12237	1974072.0	1555815.0	3218458.0	0.238099	-0.726903
     29033.65	0.14778	2381296.0	1876853.0	3882840.0	0.238048	-0.726970
     29034.13	0.15969	2566383.0	2022994.0	4184647.0	0.237919	-0.726844
     29034.62	0.12322	1986505.0	1565941.0	3239771.0	0.237890	-0.727016
     29035.10	0.083413	1340407.0	1056448.0	2185385.0	0.238061	-0.726880
     29035.58	0.13797	2221088.0	1750781.0	3621513.0	0.237935	-0.726830
     29036.07	0.12382	1999464.0	1575891.0	3260003.0	0.238058	-0.726907
     29036.55	0.13014	2100727.0	1655600.0	3424847.0	0.238120	-0.726893
     29037.04	0.14595	2354232.0	1855720.0	3838682.0	0.237942	-0.726856
     29037.52	0.13043	2097006.0	1653545.0	3419558.0	0.237589	-0.726590
     29038.01	0.13257	2139760.0	1686653.0	3489160.0	0.237948	-0.726915
     29038.49	0.14665	2357443.0	1858891.0	3845176.0	0.237597	-0.726839
     29038.98	0.11746	1890357.0	1490623.0	3083683.0	0.237572	-0.726931
     29039.46	0.13846	2230357.0	1758327.0	3637014.0	0.237799	-0.726800
     29039.95	0.12376	1993381.0	1572361.0	3252541.0	0.237254	-0.726858
     29040.43	0.12867	2073082.0	1634596.0	3380930.0	0.237641	-0.726755
     29040.92	0.12651	2034274.0	1604219.0	3318428.0	0.237502	-0.726854
     29041.40	0.13167	2120242.0	1671671.0	3457554.0	0.237707	-0.726738
     29041.89	0.12371	1994685.0	1572914.0	3252876.0	0.237556	-0.726610
     29042.37	0.12318	1985036.0	1565721.0	3238110.0	0.237291	-0.726643
     29042.86	0.11543	1858872.0	1466424.0	3033188.0	0.237143	-0.726787
     29043.34	0.13885	2236590.0	1763580.0	3647389.0	0.237607	-0.726666
     29043.83	0.12460	2003027.0	1579600.0	3266689.0	0.237488	-0.726605
     29044.31	0.12039	1940842.0	1530957.0	3165813.0	0.237229	-0.726517
     29044.80	0.12788	2056286.0	1622125.0	3354667.0	0.237164	-0.726615
     29045.28	0.12285	1977964.0	1560365.0	3227103.0	0.237148	-0.726665
     29045.77	0.11530	1854246.0	1462582.0	3025168.0	0.237275	-0.726763
     29046.25	0.11624	1869763.0	1474944.0	3050384.0	0.237192	-0.726647
     29046.74	0.12720	2046768.0	1614616.0	3339023.0	0.237165	-0.726581
     29047.22	0.11991	1931514.0	1523733.0	3151163.0	0.237141	-0.726608
     29047.71	0.11004	1768718.0	1395230.0	2885388.0	0.237196	-0.726600
     29048.19	0.13629	2194569.0	1731439.0	3580750.0	0.237033	-0.726619
     29048.68	0.12843	2068183.0	1631615.0	3373887.0	0.237100	-0.726495
     29049.16	0.11449	1843459.0	1454286.0	3007556.0	0.237129	-0.726613
     29049.65	0.12549	2016326.0	1590885.0	3289725.0	0.236987	-0.726514
     29050.13	0.12976	2088040.0	1647430.0	3406853.0	0.237009	-0.726572
     29050.62	0.13141	2114839.0	1668406.0	3449490.0	0.237110	-0.726358
     29051.10	0.13234	2127644.0	1678816.0	3471131.0	0.236926	-0.726392
     29051.59	0.12990	2088320.0	1647840.0	3406874.0	0.236895	-0.726330
     29052.08	0.12251	1966260.0	1551617.0	3208127.0	0.236836	-0.726390
     29052.56	0.13524	2167100.0	1710073.0	3535205.0	0.236854	-0.726235
     29053.05	0.10676	1711059.0	1350361.0	2792046.0	0.236741	-0.726403
     29053.53	0.12637	2028200.0	1600687.0	3309765.0	0.236716	-0.726444
     29054.02	0.12411	1982333.0	1564392.0	3234730.0	0.236777	-0.726448
     29054.50	0.13372	2142510.0	1691026.0	3496214.0	0.236643	-0.726345
     29054.99	0.12947	2073020.0	1635957.0	3382354.0	0.236779	-0.726344
     29055.47	0.12085	1942411.0	1533305.0	3170344.0	0.236504	-0.726415
     29055.96	0.13197	2120274.0	1673611.0	3460328.0	0.236562	-0.726380
     29056.44	0.13254	2128431.0	1679832.0	3472990.0	0.236691	-0.726322
     29056.93	0.12496	2007241.0	1584066.0	3274949.0	0.236766	-0.726307
     29057.41	0.12575	2021181.0	1595468.0	3298746.0	0.236515	-0.726375
     29057.90	0.13206	2109746.0	1665187.0	3442679.0	0.236630	-0.726313
     29058.39	0.13285	2134095.0	1684841.0	3483128.0	0.236371	-0.726260
     29058.87	0.12858	2067010.0	1631818.0	3373006.0	0.236408	-0.726110
     29059.36	0.11671	1868251.0	1474924.0	3049124.0	0.236396	-0.726248
     29059.84	0.12948	2081539.0	1643057.0	3396815.0	0.236549	-0.726280
     29060.33	0.13892	2234077.0	1763555.0	3645662.0	0.236497	-0.726206
     29060.81	0.10988	1764418.0	1393004.0	2878850.0	0.236358	-0.725928
     29061.30	0.11585	1860215.0	1468731.0	3036280.0	0.236293	-0.726234
     29061.78	0.13092	2105110.0	1662161.0	3436508.0	0.236249	-0.726337
     29062.27	0.12167	1953889.0	1542879.0	3189098.0	0.236172	-0.726088
     29062.76	0.12503	2008977.0	1586483.0	3278385.0	0.236106	-0.725831
     29063.24	0.12401	1987061.0	1568863.0	3242899.0	0.236306	-0.726117
     29063.73	0.13239	2124493.0	1677491.0	3466399.0	0.236234	-0.725817
     29064.21	0.13584	2182767.0	1723783.0	3562874.0	0.236072	-0.726046
     29064.70	0.088628	1425431.0	1125565.0	2326040.0	0.236189	-0.725882
     29065.18	0.11763	1888026.0	1491120.0	3081216.0	0.236004	-0.725797
     29065.67	0.088300	1418449.0	1120504.0	2316093.0	0.235785	-0.726103
     29066.16	0.12216	1956757.0	1545372.0	3193991.0	0.236024	-0.726007
     29066.64	0.11661	1872743.0	1478804.0	3056564.0	0.236171	-0.726058
     29067.13	0.13037	2087430.0	1648543.0	3406585.0	0.236042	-0.725818
     29067.61	0.15096	2421071.0	1912646.0	3952252.0	0.235722	-0.725798
     29068.10	0.14006	2245921.0	1774348.0	3665993.0	0.235683	-0.725666
     29068.59	0.088912	1427447.0	1127554.0	2329864.0	0.235837	-0.725759
     29069.07	0.12439	1996235.0	1576770.0	3257895.0	0.235884	-0.725703
     29069.56	0.12816	2050893.0	1619552.0	3347030.0	0.236126	-0.725924
     29070.04	0.12738	2041943.0	1613142.0	3332518.0	0.235718	-0.725544
     29070.53	0.12983	2078658.0	1642334.0	3393583.0	0.235604	-0.725768
     29071.01	0.13635	2185337.0	1726933.0	3567320.0	0.235423	-0.725468
     29071.50	0.19707	3154561.0	2492287.0	5148739.0	0.235649	-0.725551
     29071.99	0.094278	1502711.0	1186834.0	2451970.0	0.235982	-0.725603
     29072.47	0.092838	1484791.0	1173082.0	2423374.0	0.235640	-0.725526
     29072.96	0.12337	1977263.0	1562384.0	3227777.0	0.235501	-0.725581
     29073.44	0.13253	2124605.0	1678760.0	3467669.0	0.235530	-0.725427
     29073.93	0.12791	2041166.0	1613329.0	3332474.0	0.235221	-0.725415
     29074.42	0.13026	2080163.0	1643521.0	3393862.0	0.235605	-0.725128
     29074.90	0.14115	2256499.0	1783175.0	3682750.0	0.235419	-0.725264
     29075.39	0.17146	2749550.0	2172684.0	4487588.0	0.235474	-0.725352
     29075.87	0.13225	2113581.0	1670424.0	3449852.0	0.235306	-0.725254
     29076.36	0.099843	1600083.0	1264736.0	2611368.0	0.235192	-0.725011
     29076.85	0.12892	2066261.0	1633064.0	3372313.0	0.235283	-0.725141
     29077.33	0.12756	2045872.0	1616998.0	3338907.0	0.235253	-0.725072
     29077.82	0.12988	2078738.0	1642593.0	3391195.0	0.235485	-0.724906
     29078.31	0.13075	2084684.0	1647980.0	3402380.0	0.235067	-0.724925
     29078.79	0.12246	1955895.0	1545914.0	3191720.0	0.235233	-0.724945
     29079.28	0.14800	2366353.0	1870205.0	3860942.0	0.235302	-0.724863
     29079.76	0.11161	1784563.0	1410514.0	2911513.0	0.235219	-0.724719
     29080.25	0.11991	1919329.0	1516834.0	3131092.0	0.235350	-0.724757
     29080.74	0.12643	2021478.0	1598202.0	3297621.0	0.234950	-0.724322
     29081.22	0.12762	2040711.0	1613149.0	3329205.0	0.235110	-0.724545
     29081.71	0.12607	2016971.0	1594318.0	3289661.0	0.235151	-0.724338
     29082.20	0.12776	2041945.0	1613663.0	3329904.0	0.235396	-0.724437
     29082.68	0.12715	2035584.0	1609066.0	3320788.0	0.235129	-0.724548
     29083.17	0.12075	1932046.0	1527553.0	3150884.0	0.234912	-0.724016
     29083.65	0.11624	1858403.0	1469575.0	3032617.0	0.234744	-0.724453
     29084.14	0.12866	2058193.0	1627259.0	3357103.0	0.234931	-0.724181
     29084.63	0.11239	1795661.0	1419787.0	2929025.0	0.234866	-0.724163
     29085.11	0.12196	1953007.0	1543811.0	3184610.0	0.235116	-0.724076
     29085.60	0.12031	1925885.0	1522441.0	3139888.0	0.235071	-0.723872
     29086.09	0.13261	2120472.0	1676724.0	3458396.0	0.234797	-0.723963
     29086.57	0.11948	1909177.0	1509793.0	3113977.0	0.234700	-0.723928
     29087.06	0.12028	1921910.0	1519364.0	3133349.0	0.235028	-0.723811
     29087.55	0.13922	2226157.0	1760727.0	3630255.0	0.234550	-0.723576
     29088.03	0.12094	1931385.0	1527397.0	3149208.0	0.234672	-0.723586
     29088.52	0.12801	2046850.0	1618433.0	3337036.0	0.234844	-0.723625
     29089.01	0.13484	2155488.0	1704662.0	3514281.0	0.234650	-0.723468
     29089.49	0.12256	1960462.0	1550577.0	3196215.0	0.234553	-0.723340
     29089.98	0.13004	2080092.0	1645289.0	3392022.0	0.234496	-0.723510
     29090.47	0.12272	1960146.0	1549991.0	3194620.0	0.234770	-0.723219
     29090.95	0.12514	2000152.0	1581632.0	3260445.0	0.234766	-0.723406
     29091.44	0.13237	2116375.0	1673528.0	3449027.0	0.234771	-0.723158
     29091.93	0.11705	1871572.0	1479982.0	3049657.0	0.234749	-0.722999
     29092.41	0.12499	2000684.0	1582300.0	3260522.0	0.234610	-0.723008
     29092.90	0.13056	2086103.0	1649822.0	3398958.0	0.234630	-0.722802
     29093.39	0.11756	1874930.0	1482473.0	3053875.0	0.234860	-0.722700
     29093.87	0.14053	2243220.0	1774493.0	3655550.0	0.234398	-0.722732
     29094.36	0.12253	1960335.0	1550525.0	3193683.0	0.234522	-0.722581
     29094.85	0.14137	2259818.0	1787238.0	3681155.0	0.234613	-0.722555
     29095.33	0.11449	1830214.0	1448202.0	2982074.0	0.234110	-0.722296
     29095.82	0.13627	2178614.0	1723298.0	3548481.0	0.234449	-0.722280
     29096.31	0.12385	1977303.0	1563956.0	3220244.0	0.234515	-0.722239
     29096.79	0.12671	2022097.0	1599507.0	3292557.0	0.234440	-0.721969
     29097.28	0.13714	2191320.0	1733911.0	3568643.0	0.234125	-0.721806
     29097.77	0.13810	2206578.0	1745470.0	3592897.0	0.234419	-0.721935
     29098.25	0.10592	1692635.0	1339177.0	2755890.0	0.234231	-0.721685
     29098.74	0.13466	2152771.0	1703193.0	3504610.0	0.234251	-0.721575
     29099.23	0.11526	1840361.0	1455886.0	2995549.0	0.234347	-0.721513
     29099.71	0.12684	2023887.0	1601630.0	3295042.0	0.233998	-0.721397
     29100.20	0.11487	1834783.0	1451672.0	2986564.0	0.234210	-0.721408
     29100.69	0.12310	1964587.0	1554348.0	3196751.0	0.234226	-0.721079
     29101.17	0.12956	2068394.0	1636620.0	3365719.0	0.234139	-0.721008
     29101.66	0.11696	1863979.0	1474689.0	3032401.0	0.234266	-0.720908
     29102.15	0.13412	2132053.0	1687263.0	3469337.0	0.233978	-0.720856
     29102.64	0.10054	1600923.0	1267025.0	2604542.0	0.233909	-0.720585
     29103.12	0.11361	1806102.0	1429319.0	2938298.0	0.233973	-0.720632
     29103.61	0.11118	1766853.0	1398475.0	2874656.0	0.233818	-0.720551
     29104.10	0.11175	1775860.0	1405304.0	2888034.0	0.234031	-0.720322
     29104.58	0.11516	1832788.0	1450337.0	2980539.0	0.234042	-0.720308
     29105.07	0.12127	1929730.0	1526628.0	3136435.0	0.234319	-0.720025
     29105.56	0.12546	1992599.0	1577206.0	3239900.0	0.233785	-0.719888
     29106.04	0.12974	2058310.0	1628979.0	3345552.0	0.233932	-0.719678
     29106.53	0.11523	1827922.0	1446954.0	2970786.0	0.233719	-0.719366
     29107.02	0.13114	2084817.0	1650117.0	3388205.0	0.233835	-0.719454
     29107.51	0.13607	2164101.0	1712834.0	3516567.0	0.233856	-0.719336
     29107.99	0.11427	1819171.0	1439613.0	2954666.0	0.234007	-0.719011
     29108.48	0.13277	2114244.0	1673261.0	3434541.0	0.233923	-0.719109
     29108.97	0.13539	2153275.0	1704358.0	3497368.0	0.233801	-0.718822
     29109.46	0.13749	2191596.0	1734475.0	3558267.0	0.233925	-0.718569
     29109.94	0.12575	2004523.0	1586792.0	3254246.0	0.233692	-0.718246
     29110.43	0.12490	1984194.0	1570458.0	3220526.0	0.233845	-0.718177
     29110.92	0.13035	2078656.0	1645101.0	3373414.0	0.233920	-0.718124
     29111.40	0.11986	1910130.0	1511821.0	3099203.0	0.233856	-0.717830
     29111.89	0.12638	2015516.0	1595492.0	3270000.0	0.233693	-0.717608
     29112.38	0.13434	2140651.0	1694517.0	3472456.0	0.233712	-0.717464
     29112.87	0.13462	2145393.0	1698429.0	3479089.0	0.233619	-0.717067
     29113.35	0.12427	1980483.0	1567698.0	3210964.0	0.233732	-0.716963
     29113.84	0.14977	2386900.0	1890215.0	3870912.0	0.233305	-0.716800
     29114.33	0.13543	2143500.0	1697039.0	3474781.0	0.233555	-0.716646
     29114.82	0.13804	2193930.0	1737005.0	3555649.0	0.233532	-0.716375
     29115.30	0.12057	1917675.0	1518180.0	3106653.0	0.233601	-0.716034
     29115.79	0.13995	2226222.0	1762556.0	3605908.0	0.233541	-0.715809
     29116.28	0.13601	2164991.0	1714208.0	3506986.0	0.233465	-0.715806
     29116.77	0.12816	2039699.0	1615232.0	3303839.0	0.233324	-0.715607
     29117.25	0.12084	1915330.0	1516408.0	3100828.0	0.233546	-0.715325
     29117.74	0.12909	2051358.0	1624352.0	3320021.0	0.233393	-0.714862
     29118.23	0.12094	1923969.0	1523415.0	3113298.0	0.233436	-0.714728
     29118.72	0.11794	1876853.0	1486385.0	3036790.0	0.233249	-0.714454
     29119.20	0.12656	2012402.0	1593871.0	3254964.0	0.233163	-0.714016
     29119.69	0.12113	1916673.0	1517743.0	3099314.0	0.233367	-0.713956
     29120.18	0.13397	2127930.0	1684909.0	3439776.0	0.233438	-0.713695
     29120.67	0.12738	2025673.0	1604413.0	3274241.0	0.233144	-0.713328
     29121.15	0.12152	1932865.0	1530895.0	3123219.0	0.233151	-0.713012
     29121.64	0.13070	2078361.0	1645676.0	3357320.0	0.233428	-0.712992
     29122.13	0.11831	1881596.0	1489973.0	3038783.0	0.233362	-0.712699
     29122.62	0.12144	1930125.0	1528339.0	3115647.0	0.233403	-0.712255
     29123.10	0.11669	1854687.0	1469013.0	2994092.0	0.233125	-0.712050
     29123.59	0.12299	1956418.0	1549370.0	3156447.0	0.233267	-0.711599
     29124.08	0.11436	1817550.0	1439560.0	2932237.0	0.233152	-0.711428
     29124.57	0.13000	2067008.0	1637073.0	3333517.0	0.233192	-0.711118
     29125.06	0.10527	1675117.0	1326613.0	2700315.0	0.233254	-0.710739
     29125.54	0.12943	2055642.0	1628091.0	3313220.0	0.233180	-0.710512
     29126.03	0.12091	1922448.0	1522323.0	3097061.0	0.233362	-0.710216
     29126.52	0.12964	2060922.0	1632257.0	3319460.0	0.233190	-0.709838
     29127.01	0.11866	1882340.0	1490614.0	3030181.0	0.233328	-0.709434
     29127.49	0.13793	2189409.0	1733948.0	3523341.0	0.233231	-0.709009
     29127.98	0.13161	2086746.0	1652769.0	3357480.0	0.233154	-0.708739
     29128.47	0.13973	2220792.0	1758932.0	3571229.0	0.233157	-0.708203
     29128.96	0.11718	1856082.0	1470523.0	2984683.0	0.232850	-0.707875
     29129.45	0.12825	2036787.0	1612981.0	3273216.0	0.233290	-0.707689
     29129.93	0.12223	1941893.0	1538010.0	3119598.0	0.233174	-0.707215
     29130.42	0.12263	1945675.0	1541051.0	3124966.0	0.233144	-0.706959
     29130.91	0.12464	1968512.0	1559097.0	3160037.0	0.233171	-0.706477
     29131.40	0.12318	1952249.0	1546497.0	3133059.0	0.232990	-0.706017
     29131.89	0.12215	1930007.0	1528637.0	3095645.0	0.233147	-0.705620
     29132.37	0.13408	2126261.0	1683861.0	3408886.0	0.233276	-0.705296
     29132.86	0.12151	1928210.0	1526834.0	3088865.0	0.233396	-0.704607
     29133.35	0.12711	2016011.0	1596616.0	3229034.0	0.233234	-0.704297
     29133.84	0.12761	2021013.0	1601029.0	3236173.0	0.232952	-0.703745
     29134.33	0.13045	2050416.0	1624362.0	3281389.0	0.232928	-0.703152
     29134.81	0.12722	2016069.0	1597217.0	3226082.0	0.232887	-0.703006
     29135.30	0.12987	2059547.0	1631212.0	3292343.0	0.233163	-0.702276
     29135.79	0.12746	2017399.0	1597584.0	3224028.0	0.233317	-0.702139
     29136.28	0.13643	2155896.0	1707956.0	3443866.0	0.232909	-0.701297
     29136.77	0.12181	1929317.0	1528291.0	3080360.0	0.233016	-0.700896
     29137.25	0.13251	2103013.0	1665523.0	3354344.0	0.233232	-0.700117
     29137.74	0.12645	2005259.0	1588101.0	3197306.0	0.233234	-0.699770
     29138.23	0.12548	1980574.0	1568637.0	3157189.0	0.233180	-0.699475
     29138.72	0.11501	1819467.0	1441003.0	2898329.0	0.233204	-0.698795
     29139.21	0.12736	2015555.0	1596701.0	3209068.0	0.232955	-0.698041
     29139.70	0.12624	1993131.0	1578597.0	3170796.0	0.233170	-0.697446
     29140.18	0.12411	1962325.0	1554364.0	3120001.0	0.233064	-0.696767
     29140.67	0.12602	1994514.0	1579343.0	3168641.0	0.233391	-0.696294
     29141.16	0.12335	1949690.0	1544357.0	3096297.0	0.233063	-0.695599
     29141.65	0.12014	1904599.0	1508152.0	3022243.0	0.233386	-0.695114
     29142.14	0.11074	1757581.0	1392076.0	2787041.0	0.233142	-0.694184
     29142.63	0.12183	1926918.0	1525847.0	3053215.0	0.233372	-0.693645
     29143.11	0.11590	1835394.0	1453569.0	2906547.0	0.233237	-0.692944
     29143.60	0.11516	1821358.0	1442434.0	2881340.0	0.233250	-0.691923
     29144.09	0.11976	1888081.0	1495186.0	2985493.0	0.233310	-0.691514
     29144.58	0.11403	1804179.0	1429032.0	2851358.0	0.233108	-0.690798
     29145.07	0.10950	1726034.0	1367362.0	2725718.0	0.232943	-0.689849
     29145.56	0.12753	2019137.0	1598786.0	3185499.0	0.233426	-0.689364
     29146.04	0.13470	2132724.0	1688685.0	3361034.0	0.233450	-0.688299
     29146.53	0.11523	1819172.0	1440237.0	2865070.0	0.233574	-0.687785
     29147.02	0.12838	2030272.0	1607085.0	3193340.0	0.233748	-0.686645
     29147.51	0.11911	1886800.0	1493706.0	2965086.0	0.233622	-0.685646
     29148.00	0.12388	1956856.0	1549432.0	3073673.0	0.233451	-0.684985
     29148.49	0.13822	2189400.0	1733635.0	3435181.0	0.233407	-0.683849
     29148.98	0.14794	2341213.0	1853180.0	3667993.0	0.233766	-0.682742
     29149.46	0.11447	1811579.0	1433972.0	2836131.0	0.233751	-0.681993
     29149.95	0.16522	2615141.0	2070215.0	4090352.0	0.233666	-0.680979
     29150.44	0.093975	1484393.0	1174972.0	2319090.0	0.233762	-0.679931
     29150.93	0.12287	1940178.0	1536101.0	3028435.0	0.233532	-0.678799
     29151.42	0.12781	2017910.0	1597739.0	3145738.0	0.233473	-0.677459
     29151.91	0.13123	2071919.0	1639721.0	3224813.0	0.233949	-0.676349
     29152.40	0.12782	2020561.0	1599110.0	3141537.0	0.233928	-0.675265
     29152.88	0.13778	2169451.0	1717394.0	3368594.0	0.233666	-0.673687
     29153.37	0.12671	1996851.0	1580532.0	3097814.0	0.233810	-0.672935
     29153.86	0.16944	2671745.0	2114301.0	4137631.0	0.234008	-0.671399
     29154.35	0.098116	1546939.0	1224203.0	2392532.0	0.233988	-0.670062
     29154.84	0.13466	2123995.0	1680668.0	3279717.0	0.234107	-0.668566
     29155.33	0.12694	1999047.0	1581545.0	3082033.0	0.234268	-0.667187
     29155.82	0.14235	2249945.0	1780000.0	3462846.0	0.234292	-0.665477
     29156.31	0.12021	1893037.0	1498016.0	2909808.0	0.234041	-0.663946
     29156.79	0.13490	2110975.0	1670224.0	3239352.0	0.234192	-0.662416
     29157.28	0.12712	2000649.0	1582555.0	3063658.0	0.234431	-0.660569
     29157.77	0.13326	2099404.0	1660620.0	3209388.0	0.234462	-0.658889
     29158.26	0.12738	2010265.0	1589748.0	3067007.0	0.234691	-0.657127
     29158.75	0.12007	1898862.0	1501461.0	2891323.0	0.234816	-0.655276
     29159.24	0.12404	1960444.0	1550328.0	2978924.0	0.234704	-0.653096
     29159.73	0.12507	1976562.0	1562657.0	2997272.0	0.234971	-0.651315
     29160.22	0.12411	1957307.0	1547214.0	2961511.0	0.235114	-0.649244
     29160.71	0.13199	2075871.0	1640911.0	3132295.0	0.235129	-0.646514
     29161.19	0.12856	2027062.0	1602508.0	3052765.0	0.235018	-0.644478
     29161.68	0.12614	1989641.0	1572571.0	2989008.0	0.235242	-0.642230
     29162.17	0.11481	1801988.0	1424284.0	2700224.0	0.235221	-0.639666
     29162.66	0.13024	2048686.0	1618994.0	3060433.0	0.235394	-0.636751
     29163.15	0.11792	1854603.0	1465388.0	2762256.0	0.235551	-0.633928
     29163.64	0.11671	1833586.0	1448404.0	2722175.0	0.235811	-0.630969
     29164.13	0.12324	1938758.0	1530955.0	2869468.0	0.236156	-0.628235
     29164.62	0.13028	2056088.0	1623741.0	3032781.0	0.236072	-0.624747
     29165.11	0.11389	1798502.0	1420246.0	2643542.0	0.236124	-0.621290
     29165.60	0.12219	1930803.0	1524156.0	2826553.0	0.236495	-0.617617
     29166.09	0.12115	1909391.0	1507168.0	2784853.0	0.236552	-0.613963
     29166.57	0.13122	2068391.0	1632441.0	3004439.0	0.236695	-0.610014
     29167.06	0.12345	1946739.0	1536007.0	2814320.0	0.236969	-0.605534
     29167.55	0.12549	1974133.0	1557439.0	2840586.0	0.237087	-0.600968
     29168.04	0.14450	2282195.0	1799767.0	3267067.0	0.237480	-0.596235
     29168.53	0.12580	1978273.0	1559505.0	2815780.0	0.237856	-0.590871
     29169.02	0.12063	1903358.0	1500061.0	2695599.0	0.238114	-0.586115
     29169.51	0.13873	2192569.0	1727431.0	3086064.0	0.238439	-0.580261
     29170.00	0.10753	1694638.0	1335440.0	2370789.0	0.238208	-0.573962
     29170.49	0.12915	2036437.0	1603795.0	2828103.0	0.238829	-0.567233
     29170.98	0.11773	1852606.0	1458895.0	2553530.0	0.238914	-0.559797
     29171.47	0.12302	1934974.0	1523270.0	2646830.0	0.239235	-0.552503
     29171.96	0.13278	2092360.0	1646160.0	2837938.0	0.239847	-0.544632
     29172.45	0.13260	2090235.0	1643804.0	2808975.0	0.240263	-0.535807
     29172.94	0.12146	1914752.0	1505015.0	2546740.0	0.240785	-0.526011
     29173.42	0.12988	2042578.0	1605501.0	2688707.0	0.240777	-0.515625
     29173.91	0.12603	1976547.0	1551995.0	2570092.0	0.241810	-0.504400
     29174.40	0.13272	2083781.0	1635611.0	2675504.0	0.242168	-0.492121
     29174.89	0.12884	2028849.0	1591460.0	2570473.0	0.242817	-0.479438
     29175.38	0.12616	1980631.0	1552433.0	2470440.0	0.243592	-0.464573
     29175.87	0.13210	2074179.0	1625150.0	2545619.0	0.243965	-0.448774
     29176.36	0.12680	1995128.0	1562038.0	2404540.0	0.244717	-0.431367
     29176.85	0.13216	2083013.0	1629282.0	2460829.0	0.245676	-0.412359
     29177.34	0.12299	1937333.0	1514144.0	2242676.0	0.246462	-0.392820
     29177.83	0.12562	1979405.0	1545250.0	2232608.0	0.247611	-0.367985
     29178.32	0.11316	1777951.0	1386801.0	1949837.0	0.248462	-0.340746
     29178.81	0.12917	2031788.0	1583212.0	2164698.0	0.249460	-0.312825
     29179.30	0.11792	1855456.0	1443816.0	1907774.0	0.250841	-0.278648
     29179.79	0.13044	2050183.0	1592645.0	2030120.0	0.252533	-0.242699
     29180.28	0.12923	2029000.0	1574099.0	1926759.0	0.253860	-0.202156
     29180.77	0.12633	1988563.0	1540154.0	1799199.0	0.255530	-0.155459
     29181.26	0.10158	1594479.0	1232226.0	1363496.0	0.257725	-0.101230
     29181.75	0.11421	1795111.0	1384334.0	1452632.0	0.259848	-0.0481579
     29182.24	0.11238	1771338.0	1362601.0	1344489.0	0.262340	0.0133814
     29182.73	0.11461	1799663.0	1380196.0	1274267.0	0.265374	0.0798544
     29183.22	0.12018	1883578.0	1440382.0	1235200.0	0.268265	0.153675
     29183.71	0.11022	1726362.0	1315784.0	1049901.0	0.271584	0.225737
     29184.20	0.12987	2039094.0	1548950.0	1149808.0	0.274928	0.297982
     29184.68	0.12285	1924187.0	1455860.0	1003725.0	0.278907	0.371879
     29185.17	0.12063	1897615.0	1428994.0	907625.0	0.283627	0.453895
     29185.66	0.11863	1867149.0	1400070.0	830428.0	0.287890	0.522336
     29186.15	0.13266	2083600.0	1555364.0	861170.0	0.292388	0.591173
     29186.64	0.13064	2055311.0	1526205.0	792146.0	0.297643	0.655794
     29187.13	0.13521	2127897.0	1571232.0	769872.0	0.303274	0.713391
     29187.62	0.12592	1975480.0	1450673.0	677545.0	0.308784	0.761307
     29188.11	0.13296	2091286.0	1527115.0	684554.0	0.314399	0.802368
     29188.60	0.13237	2075425.0	1506653.0	655443.0	0.320275	0.832335
     29189.09	0.12101	1902862.0	1372972.0	582408.0	0.326381	0.857562
     29189.58	0.12305	1928934.0	1383813.0	578745.0	0.332125	0.871736
     29190.07	0.12493	1960338.0	1398721.0	581319.0	0.337559	0.878014
     29190.56	0.13443	2112548.0	1499423.0	622208.0	0.342814	0.879561
     29191.05	0.13109	2058067.0	1454062.0	606344.0	0.347406	0.874669
     29191.54	0.13855	2175019.0	1530308.0	643890.0	0.351568	0.865696
     29192.03	0.13469	2118591.0	1485353.0	632848.0	0.355099	0.853177
     29192.52	0.12310	1934651.0	1352401.0	584717.0	0.358045	0.838509
     29193.01	0.13733	2157534.0	1505577.0	660672.0	0.359790	0.823674
     29193.50	0.12869	2020589.0	1408366.0	628251.0	0.360959	0.807246
     29193.99	0.14013	2198911.0	1532118.0	694698.0	0.361311	0.790929
     29194.48	0.12680	1984833.0	1383296.0	636723.0	0.361066	0.775890
     29194.97	0.13456	2106012.0	1469038.0	686099.0	0.360188	0.761341
     29195.46	0.13145	2064868.0	1441867.0	682447.0	0.359128	0.748009
     29195.95	0.13147	2055318.0	1438235.0	689473.0	0.357014	0.735244
     29196.44	0.11736	1831333.0	1284056.0	622578.0	0.355020	0.723910
     29196.93	0.12116	1902411.0	1337081.0	654570.0	0.352633	0.714266
     29197.42	0.13306	2089395.0	1472240.0	727459.0	0.350089	0.704983
     29197.92	0.11655	1827020.0	1290680.0	642281.0	0.347517	0.697899
     29198.41	0.13426	2108003.0	1493205.0	747978.0	0.344816	0.691307
     29198.90	0.11703	1832413.0	1301101.0	655302.0	0.342423	0.685870
     29199.39	0.12584	1975872.0	1406845.0	711804.0	0.339660	0.681302
     29199.88	0.13111	2059050.0	1469624.0	746421.0	0.337238	0.677472
     29200.37	0.12288	1925233.0	1377343.0	701464.0	0.334891	0.674742
     29200.86	0.11871	1865322.0	1337156.0	682043.0	0.332889	0.673208
     29201.35	0.12436	1948089.0	1399207.0	714645.0	0.330943	0.671875
     29201.84	0.12147	1902106.0	1368642.0	698778.0	0.329143	0.672241
     29202.33	0.12598	1975306.0	1423572.0	726425.0	0.327554	0.672789
     29202.82	0.11517	1807069.0	1304408.0	664689.0	0.325957	0.674185
     29203.31	0.13236	2069087.0	1495477.0	760882.0	0.324662	0.675722
     29203.80	0.12819	2008364.0	1453193.0	737629.0	0.323557	0.678077
     29204.29	0.11243	1760261.0	1275099.0	645615.0	0.322438	0.680576
     29204.78	0.11813	1854808.0	1344793.0	678990.0	0.321541	0.683389
     29205.27	0.12614	1976883.0	1434893.0	722234.0	0.320431	0.686496
     29205.76	0.12168	1899304.0	1379385.0	692040.0	0.319850	0.689749
     29206.25	0.13418	2101119.0	1527271.0	763486.0	0.318988	0.693343
     29206.74	0.12907	2021074.0	1469543.0	732512.0	0.318678	0.696227
     29207.23	0.13779	2163317.0	1574197.0	782538.0	0.317897	0.698958
     29207.72	0.12911	2025897.0	1474521.0	731170.0	0.317679	0.701442
     29208.21	0.11749	1835931.0	1336949.0	661660.0	0.317162	0.703394
     29208.70	0.12708	1987333.0	1448190.0	715117.0	0.316479	0.705624
     29209.19	0.12738	1998657.0	1456862.0	718114.0	0.316191	0.707412
     29209.69	0.11746	1836317.0	1338196.0	659129.0	0.316439	0.708158
     29210.18	0.12562	1967366.0	1434688.0	706124.0	0.315748	0.708912
     29210.67	0.12342	1927033.0	1405807.0	691259.0	0.315370	0.709852
     29211.16	0.12934	2021764.0	1475639.0	725852.0	0.314879	0.709500
     29211.65	0.12320	1928779.0	1407576.0	692157.0	0.315018	0.709812
     29212.14	0.12968	2031567.0	1483169.0	730097.0	0.314626	0.708759
     29212.63	0.12557	1963205.0	1433707.0	706696.0	0.314315	0.707418
     29213.12	0.13895	2171755.0	1586266.0	783147.0	0.314153	0.705818
     29213.61	0.12256	1914306.0	1399066.0	692175.0	0.313550	0.703721
     29214.10	0.12924	2011230.0	1470220.0	729552.0	0.313334	0.700737
     29214.59	0.13570	2121416.0	1551380.0	772236.0	0.312939	0.697610
     29215.08	0.13904	2178448.0	1593609.0	795747.0	0.312611	0.694475
     29215.57	0.12457	1951508.0	1428018.0	716077.0	0.312315	0.690255
     29216.06	0.11691	1830300.0	1340249.0	674884.0	0.311624	0.686070
     29216.56	0.12333	1929686.0	1413418.0	715245.0	0.311346	0.681141
     29217.05	0.12307	1926199.0	1410974.0	716927.0	0.311268	0.677062
     29217.54	0.12881	2015594.0	1476694.0	753654.0	0.311108	0.672628
     29218.03	0.11853	1854482.0	1358797.0	696265.0	0.311006	0.668625
     29218.52	0.13702	2145042.0	1571802.0	808941.0	0.310936	0.664252
     29219.01	0.11773	1842479.0	1350145.0	696645.0	0.310900	0.661691
     29219.50	0.13906	2174637.0	1593679.0	824678.0	0.310817	0.658807
     29219.99	0.10605	1654369.0	1212317.0	628665.0	0.310886	0.656690
     29220.48	0.10771	1682472.0	1233378.0	640204.0	0.310507	0.655725
     29220.97	0.10307	1608878.0	1179046.0	612212.0	0.310831	0.655382
     29221.47	0.12231	1907514.0	1397947.0	725422.0	0.310796	0.656006
     29221.96	0.12105	1894004.0	1387983.0	719565.0	0.310841	0.656960
     29222.45	0.11624	1813229.0	1328634.0	687636.0	0.310958	0.658647
     29222.94	0.11288	1758267.0	1288324.0	665323.0	0.310987	0.660825
     29223.43	0.13356	2083181.0	1526703.0	785970.0	0.310786	0.663947
     29223.92	0.10095	1572468.0	1151829.0	591277.0	0.311295	0.666822
     29224.41	0.12585	1962307.0	1437412.0	735193.0	0.311277	0.670467
     29224.90	0.12695	1976320.0	1447721.0	737747.0	0.311246	0.674145
     29225.39	0.11933	1853849.0	1357894.0	689287.0	0.311329	0.678033
     29225.89	0.14325	2230119.0	1633740.0	826147.0	0.311183	0.681854
     29226.38	0.13912	2173488.0	1592124.0	801833.0	0.311264	0.685924
     29226.87	0.14038	2190670.0	1604156.0	804961.0	0.311610	0.689559
     29227.36	0.16843	2626987.0	1923771.0	961518.0	0.311550	0.693529
     29227.85	0.097624	1524471.0	1116328.0	555625.0	0.311603	0.697706
     29228.34	0.11720	1825624.0	1336455.0	662392.0	0.311901	0.701918
     29228.83	0.11270	1756722.0	1285741.0	634756.0	0.312114	0.705850
     29229.32	0.13218	2050626.0	1500646.0	737945.0	0.312249	0.709782
     29229.81	0.12756	1989404.0	1455224.0	712991.0	0.312675	0.713446
     29230.31	0.13181	2046004.0	1496632.0	730601.0	0.312671	0.717105
     29230.80	0.13595	2113729.0	1545834.0	751247.0	0.312890	0.721584
     29231.29	0.16268	2531451.0	1850550.0	896206.0	0.313310	0.725068
     29231.78	0.10516	1639684.0	1198093.0	578132.0	0.313772	0.728684
     29232.27	0.13477	2104579.0	1537456.0	738711.0	0.313986	0.732978
     29232.76	0.11866	1847257.0	1348988.0	645696.0	0.314347	0.736781
     29233.25	0.14050	2187465.0	1596430.0	762061.0	0.314973	0.739499
     29233.75	0.13607	2111757.0	1540514.0	732644.0	0.315404	0.743211
     29234.24	0.14228	2217985.0	1617437.0	766929.0	0.315756	0.746204
     29234.73	0.15867	2467342.0	1798778.0	851030.0	0.316034	0.748415
     29235.22	0.12384	1922549.0	1401174.0	661472.0	0.316341	0.750598
     29235.71	0.083466	1291726.0	940652.0	443311.0	0.317161	0.752302
     29236.20	0.11967	1860408.0	1354460.0	637458.0	0.317393	0.753670
     29236.69	0.12348	1920142.0	1397555.0	656854.0	0.317675	0.755018
     29237.19	0.12752	1989044.0	1447292.0	680217.0	0.317960	0.755038
     29237.68	0.12662	1971651.0	1434155.0	674037.0	0.318295	0.755046
     29238.17	0.12553	1953710.0	1420579.0	668060.0	0.318666	0.754442
     29238.66	0.15228	2367631.0	1720833.0	810630.0	0.319081	0.752752
     29239.15	0.11066	1719355.0	1249661.0	589605.0	0.319077	0.751175
     29239.64	0.11605	1798870.0	1307070.0	618125.0	0.319371	0.748853
     29240.14	0.12089	1869779.0	1358683.0	644102.0	0.319304	0.746414
     29240.63	0.11464	1787643.0	1298579.0	617164.0	0.319627	0.743891
     29241.12	0.12048	1876171.0	1362141.0	649495.0	0.320175	0.740618
     29241.61	0.12091	1884470.0	1368240.0	654718.0	0.320121	0.737076
     29242.10	0.12507	1945343.0	1412196.0	678154.0	0.320292	0.733527
     29242.59	0.11494	1788448.0	1298275.0	625530.0	0.320312	0.730192
     29243.09	0.12601	1953405.0	1417786.0	686177.0	0.320478	0.725716
     29243.58	0.12428	1925541.0	1397586.0	679137.0	0.320461	0.721679
     29244.07	0.12449	1936110.0	1405309.0	684954.0	0.320424	0.718661
     29244.56	0.12637	1967728.0	1427651.0	699469.0	0.320849	0.713464
     29245.05	0.12924	2009799.0	1458089.0	717071.0	0.320908	0.709707
     29245.55	0.12855	2003643.0	1453572.0	717788.0	0.320943	0.705605
     29246.04	0.12968	2015703.0	1462044.0	724620.0	0.321133	0.701943
     29246.53	0.13792	2133152.0	1547517.0	769941.0	0.320949	0.698093
     29247.02	0.11568	1785248.0	1294849.0	646515.0	0.321163	0.694553
     29247.51	0.12248	1891660.0	1371782.0	687394.0	0.321344	0.690958
     29248.00	0.12626	1952144.0	1415274.0	711571.0	0.321605	0.687603
     29248.50	0.12016	1870874.0	1356319.0	683802.0	0.321631	0.684861
     29248.99	0.12936	2011979.0	1458508.0	737729.0	0.321705	0.681593
     29249.48	0.13224	2052655.0	1488234.0	754535.0	0.321544	0.679244
     29249.97	0.12430	1925236.0	1395352.0	709511.0	0.321902	0.676326
     29250.46	0.12463	1935335.0	1402693.0	714440.0	0.321886	0.674650
     29250.96	0.12054	1876647.0	1360238.0	694056.0	0.321827	0.672862
     29251.45	0.12812	1990869.0	1442780.0	737203.0	0.321999	0.671464
     29251.94	0.12585	1956305.0	1417797.0	725618.0	0.321953	0.669836
     29252.43	0.14115	2189006.0	1586390.0	813014.0	0.321987	0.668468
     29252.92	0.12673	1968205.0	1425976.0	730798.0	0.322265	0.668475
     29253.42	0.13137	2033401.0	1473402.0	755434.0	0.322136	0.668037
     29253.91	0.14376	2229091.0	1615511.0	828785.0	0.321943	0.667446
     29254.40	0.11413	1769283.0	1282030.0	657567.0	0.322130	0.667653
     29254.89	0.11629	1810404.0	1311798.0	672481.0	0.322151	0.668180
     29255.39	0.13055	2029709.0	1470977.0	753648.0	0.321966	0.668757
     29255.88	0.11910	1848706.0	1339981.0	686008.0	0.321831	0.669521
     29256.37	0.12613	1962934.0	1422498.0	727181.0	0.322026	0.670994
     29256.86	0.12426	1931743.0	1400027.0	714759.0	0.321931	0.672301
     29257.35	0.12629	1960563.0	1421289.0	724435.0	0.321667	0.673927
     29257.85	0.17750	2753833.0	1996793.0	1016072.0	0.321451	0.675598
     29258.34	0.11586	1793277.0	1300938.0	660690.0	0.320959	0.677556
     29258.83	0.097739	1515055.0	1098969.0	557152.0	0.321079	0.679290
     29259.32	0.11210	1742175.0	1263776.0	638906.0	0.321030	0.682102
     29259.82	0.082773	1284202.0	931900.0	469803.0	0.320667	0.684912
     29260.31	0.11647	1808936.0	1313053.0	660554.0	0.320384	0.687031
     29260.80	0.14227	2204123.0	1600491.0	802612.0	0.320019	0.690194
     29261.29	0.14707	2277560.0	1654025.0	827081.0	0.319893	0.693064
     29261.79	0.14388	2226199.0	1617009.0	806315.0	0.319718	0.695859
     29262.28	0.091129	1412443.0	1026340.0	510118.0	0.319322	0.699112
     29262.77	0.077206	1196785.0	869897.0	430984.0	0.319019	0.702304
     29263.26	0.11902	1849836.0	1344821.0	664007.0	0.318836	0.705724
     29263.75	0.12486	1924870.0	1400207.0	689184.0	0.318238	0.708867
     29264.25	0.13571	2105120.0	1531412.0	750956.0	0.318182	0.712598
     29264.74	0.13638	2113673.0	1537713.0	751579.0	0.318131	0.715875
     29265.23	0.13300	2057387.0	1497804.0	729721.0	0.317437	0.719093
     29265.72	0.13243	2053084.0	1495262.0	726098.0	0.317042	0.722372
     29266.22	0.13400	2075538.0	1511662.0	731917.0	0.317011	0.725298
     29266.71	0.11161	1731820.0	1261916.0	609157.0	0.316542	0.728310
     29267.20	0.12196	1888834.0	1376262.0	662685.0	0.316589	0.730827
     29267.70	0.12348	1914764.0	1395562.0	670240.0	0.316297	0.733417
     29268.19	0.13215	2039910.0	1487077.0	712647.0	0.316093	0.735582
     29268.68	0.12993	2010554.0	1466107.0	701156.0	0.315800	0.737635
     29269.17	0.14350	2219436.0	1619140.0	773058.0	0.315358	0.739296
     29269.67	0.13631	2102178.0	1533832.0	731598.0	0.315205	0.740293
     29270.16	0.12446	1925954.0	1405628.0	669311.0	0.314937	0.741991
     29270.65	0.13035	2010660.0	1467981.0	698625.0	0.314575	0.742529
     29271.14	0.13418	2059186.0	1503758.0	714974.0	0.314343	0.743476
     29271.64	0.13463	2079846.0	1519052.0	722271.0	0.314207	0.743441
     29272.13	0.13550	2090418.0	1527075.0	726059.0	0.314010	0.743478
     29272.62	0.12245	1884749.0	1377141.0	655175.0	0.313785	0.742863
     29273.11	0.13493	2084397.0	1522971.0	724683.0	0.313817	0.742684
     29273.61	0.12444	1918783.0	1402338.0	667805.0	0.313550	0.741900
     29274.10	0.13390	2067912.0	1511599.0	720687.0	0.313371	0.740718
     29274.59	0.12887	1984611.0	1451016.0	692440.0	0.313159	0.739798
     29275.09	0.12701	1955349.0	1429309.0	683504.0	0.313378	0.737714
     29275.58	0.12429	1923720.0	1406250.0	673139.0	0.313334	0.736730
     29276.07	0.12142	1861488.0	1361396.0	652768.0	0.312866	0.735044
     29276.56	0.12634	1946180.0	1423141.0	683432.0	0.313002	0.733495
     29277.06	0.12831	1987235.0	1453241.0	699286.0	0.312948	0.731492
     29277.55	0.12286	1901032.0	1390540.0	670341.0	0.312705	0.729661
     29278.04	0.12627	1959864.0	1433618.0	692324.0	0.312674	0.727903
     29278.54	0.11640	1799303.0	1316254.0	637081.0	0.312610	0.725648
     29279.03	0.13142	2035211.0	1488927.0	721847.0	0.312544	0.723998
     29279.52	0.12665	1957141.0	1432005.0	695937.0	0.312409	0.721572
     29280.02	0.11282	1747778.0	1279173.0	622871.0	0.312131	0.719630
     29280.51	0.11735	1815657.0	1329062.0	648085.0	0.311974	0.718207
     29281.00	0.12578	1943873.0	1422555.0	695174.0	0.312228	0.716048
     29281.49	0.11091	1718432.0	1257633.0	615881.0	0.312181	0.713933
     29281.99	0.12549	1935538.0	1416686.0	694696.0	0.312065	0.712601
     29282.48	0.12310	1897687.0	1389362.0	682133.0	0.311791	0.711375
     29282.97	0.14040	2167719.0	1587066.0	780557.0	0.311788	0.709635
     29283.47	0.11981	1853699.0	1357061.0	668365.0	0.311862	0.708242
     29283.96	0.12851	1990878.0	1457548.0	718912.0	0.311820	0.706772
     29284.45	0.15267	2363209.0	1730106.0	854519.0	0.311838	0.705399
     29284.95	0.11860	1837294.0	1345106.0	665104.0	0.311821	0.704285
     29285.44	0.11232	1737947.0	1272441.0	629908.0	0.311767	0.703119
     29285.93	0.12430	1924372.0	1409299.0	698240.0	0.311507	0.702285
     29286.43	0.11471	1772719.0	1298074.0	643884.0	0.311633	0.701118
     29286.92	0.12768	1974069.0	1445805.0	717806.0	0.311431	0.700222
     29287.41	0.11840	1832468.0	1341934.0	666476.0	0.311552	0.699863
     29287.91	0.14798	2281780.0	1671299.0	831178.0	0.311355	0.698512
     29288.40	0.13562	2096577.0	1535850.0	763904.0	0.311222	0.698397
     29288.89	0.10967	1697675.0	1243211.0	618608.0	0.311562	0.697981
     29289.39	0.12274	1898434.0	1390417.0	692014.0	0.311426	0.697753
     29289.88	0.13273	2054276.0	1504383.0	749265.0	0.311541	0.697045
     29290.37	0.13182	2039154.0	1493548.0	744225.0	0.311381	0.696566
     29290.87	0.12999	2008065.0	1470869.0	733071.0	0.311318	0.696366
     29291.36	0.12974	2006053.0	1469662.0	732420.0	0.311137	0.696434
     29291.85	0.13792	2127119.0	1558336.0	776701.0	0.311150	0.696318
     29292.35	0.12609	1945614.0	1425237.0	710513.0	0.311239	0.696106
     29292.84	0.12224	1885377.0	1380794.0	688460.0	0.311469	0.695957
     29293.33	0.10904	1685566.0	1234889.0	615594.0	0.311120	0.696149
     29293.83	0.13515	2089834.0	1530901.0	762805.0	0.311228	0.696609
     29294.32	0.12398	1916083.0	1403329.0	699417.0	0.311436	0.696355
     29294.81	0.12426	1922477.0	1407742.0	701397.0	0.311627	0.696668
     29295.31	0.13606	2097705.0	1535599.0	764563.0	0.311923	0.697371
     29295.80	0.12101	1869268.0	1368682.0	681054.0	0.311699	0.697962
     29296.29	0.11097	1710201.0	1251615.0	622941.0	0.312176	0.697738
     29296.79	0.10944	1687020.0	1235128.0	614354.0	0.311789	0.698359
     29297.28	0.11925	1840940.0	1347796.0	670081.0	0.311806	0.698827
     29297.77	0.11275	1738288.0	1272834.0	631913.0	0.311655	0.700249
     29298.27	0.11953	1844886.0	1350093.0	670570.0	0.312244	0.699801
     29298.76	0.12869	1983931.0	1452330.0	720458.0	0.311911	0.701037
     29299.26	0.13691	2108354.0	1542538.0	764634.0	0.312478	0.701787
     29299.75	0.16087	2479923.0	1814434.0	898445.0	0.312454	0.702863
     29300.24	0.091197	1406558.0	1029071.0	509260.0	0.312489	0.703453
     29300.74	0.083020	1279277.0	935604.0	462604.0	0.312858	0.704321
     29301.23	0.10547	1618806.0	1184314.0	585060.0	0.312525	0.705205
     29301.72	0.12075	1858674.0	1359121.0	670994.0	0.313025	0.705833
     29302.22	0.13192	2031628.0	1486009.0	732736.0	0.312743	0.707064
     29302.71	0.16106	2475646.0	1810431.0	892404.0	0.312936	0.707401
     29303.21	0.10370	1596416.0	1167294.0	574955.0	0.313073	0.708152
     29303.70	0.15679	2414179.0	1764618.0	868529.0	0.313425	0.708889
     29304.19	0.098760	1516848.0	1108892.0	545030.0	0.313273	0.710276
     29304.69	0.12571	1932039.0	1412379.0	694042.0	0.313300	0.710498
     29305.18	0.13925	2138136.0	1562344.0	766761.0	0.313747	0.711767
     29305.67	0.13099	2014488.0	1472256.0	722192.0	0.313569	0.712260
     29306.17	0.12848	1970090.0	1440120.0	705407.0	0.313353	0.713707
     29306.66	0.12197	1871701.0	1368140.0	669683.0	0.313395	0.714403
     29307.16	0.19463	2980888.0	2178352.0	1065850.0	0.313653	0.714796
     29307.65	0.10086	1543516.0	1127711.0	551447.0	0.313873	0.715399
     29308.14	0.10323	1584434.0	1157739.0	565643.0	0.313758	0.716261
     29308.64	0.13538	2078462.0	1518794.0	741915.0	0.313712	0.716437
     29309.13	0.13684	2098289.0	1532869.0	748151.0	0.313981	0.717292
     29309.63	0.13142	2011545.0	1469517.0	717213.0	0.313969	0.717316
     29310.12	0.13471	2060481.0	1505475.0	733946.0	0.313831	0.718428
     29310.61	0.13168	2016588.0	1473441.0	718122.0	0.313806	0.718716
     29311.11	0.13772	2106952.0	1539175.0	749848.0	0.313996	0.719131
     29311.60	0.12994	1997170.0	1459216.0	710418.0	0.313832	0.719801
     29312.10	0.12089	1859882.0	1358893.0	661786.0	0.313843	0.719483
     29312.59	0.12113	1862117.0	1360112.0	661913.0	0.314147	0.720188
     29313.08	0.12376	1906309.0	1392435.0	677583.0	0.314115	0.720277
     29313.58	0.13104	2014918.0	1471609.0	716074.0	0.314222	0.720328
     29314.07	0.12334	1896644.0	1385586.0	674007.0	0.313963	0.720638
     29314.57	0.13318	2045144.0	1493791.0	726311.0	0.314151	0.721094
     29315.06	0.13252	2042363.0	1491951.0	725325.0	0.314023	0.721220
     29315.56	0.10941	1683380.0	1229482.0	597787.0	0.314211	0.721114
     29316.05	0.13140	2024029.0	1478717.0	718728.0	0.313915	0.721447
     29316.54	0.12010	1848818.0	1350442.0	656499.0	0.314115	0.721266
     29317.04	0.11952	1839895.0	1343763.0	653326.0	0.314235	0.721153
     29317.53	0.12350	1900014.0	1387946.0	674775.0	0.314036	0.721201
     29318.03	0.11335	1743411.0	1273159.0	619162.0	0.314342	0.720890
     29318.52	0.12390	1909210.0	1394806.0	677945.0	0.313934	0.721444
     29319.02	0.13318	2050120.0	1497475.0	728108.0	0.314118	0.721086
     29319.51	0.11544	1778122.0	1298774.0	631431.0	0.314137	0.721187
     29320.00	0.12618	1940412.0	1417578.0	689720.0	0.313951	0.720419
     29320.50	0.11308	1738974.0	1269963.0	617849.0	0.314308	0.720499
     29320.99	0.13252	2040871.0	1490752.0	725464.0	0.314096	0.720225
     29321.49	0.11768	1810656.0	1322574.0	643670.0	0.314109	0.720149
     29321.98	0.13986	2150978.0	1571268.0	765125.0	0.314040	0.719599
     29322.48	0.12844	1976270.0	1443635.0	703072.0	0.314047	0.719460
     29322.97	0.13784	2118996.0	1547800.0	753898.0	0.314108	0.719333
     29323.47	0.10825	1665085.0	1216057.0	592628.0	0.314263	0.718802
     29323.96	0.13624	2096161.0	1531464.0	746701.0	0.313883	0.718315
     29324.45	0.13207	2029107.0	1482526.0	723000.0	0.313848	0.718093
     29324.95	0.11359	1747914.0	1276673.0	623105.0	0.314166	0.717298
     29325.44	0.12568	1926516.0	1407394.0	687321.0	0.313973	0.716694
     29325.94	0.12946	1989563.0	1453395.0	709829.0	0.314013	0.716633
     29326.43	0.12885	1976559.0	1444085.0	705855.0	0.313882	0.715821
     29326.93	0.12502	1913817.0	1398378.0	683723.0	0.313787	0.715515
     29327.42	0.12263	1878222.0	1372201.0	671105.0	0.313910	0.715246
     29327.92	0.11857	1820105.0	1330067.0	651243.0	0.313665	0.714102
     29328.41	0.13569	2079021.0	1519132.0	743868.0	0.313758	0.714031
     29328.91	0.12486	1917027.0	1400780.0	686322.0	0.313746	0.713438
     29329.40	0.13770	2118747.0	1548350.0	758806.0	0.313635	0.713199
     29329.89	0.13423	2062082.0	1507333.0	739276.0	0.313374	0.712426
     29330.39	0.13050	2004112.0	1464608.0	718912.0	0.313613	0.711604
     29330.88	0.13457	2059961.0	1505593.0	739472.0	0.313500	0.711006
     29331.38	0.11586	1778141.0	1299867.0	638594.0	0.313306	0.710748
     29331.87	0.11091	1700863.0	1243136.0	611080.0	0.313499	0.710165
     29332.37	0.13375	2055797.0	1502572.0	738835.0	0.313485	0.709859
     29332.86	0.11731	1803862.0	1318698.0	648578.0	0.313285	0.709618
     29333.36	0.12246	1881323.0	1375566.0	676732.0	0.313110	0.709345
     29333.85	0.12751	1958880.0	1431854.0	704996.0	0.313403	0.708533
     29334.35	0.13248	2035338.0	1488475.0	733178.0	0.312910	0.708119
     29334.84	0.11745	1804027.0	1318756.0	649843.0	0.313333	0.707713
     29335.34	0.12182	1873368.0	1369496.0	675238.0	0.313295	0.707133
     29335.83	0.11838	1816570.0	1328272.0	655052.0	0.313071	0.706920
     29336.33	0.11325	1712013.0	1251953.0	617533.0	0.312965	0.706728
     29336.82	0.12153	1846564.0	1350531.0	666230.0	0.312829	0.706618
     29337.32	0.11680	1772722.0	1296459.0	640091.0	0.312880	0.705782
     29337.81	0.10083	1537195.0	1124699.0	555472.0	0.312444	0.705453
     29338.31	0.12837	1964162.0	1436536.0	709441.0	0.312831	0.705513
     29338.80	0.11415	1732117.0	1267202.0	626380.0	0.312533	0.704609
     29339.30	0.13203	2024119.0	1481040.0	731855.0	0.312390	0.704917
     29339.79	0.10340	1586226.0	1160603.0	573710.0	0.312418	0.704571
     29340.29	0.13006	1992559.0	1457668.0	721036.0	0.312582	0.703904
     29340.78	0.11931	1831737.0	1340534.0	662854.0	0.312197	0.704269
     29341.28	0.13151	2019467.0	1477564.0	730756.0	0.312439	0.704070
     29341.77	0.13712	2095860.0	1534266.0	758854.0	0.311912	0.703998
     29342.27	0.14295	2176421.0	1592899.0	788280.0	0.312126	0.703458
     29342.76	0.14709	2250915.0	1647758.0	815447.0	0.311921	0.703434
     29343.26	0.11432	1750154.0	1281133.0	634040.0	0.311959	0.703388
     29343.75	0.10145	1556150.0	1139067.0	563894.0	0.312005	0.703098
     29344.25	0.12967	1988714.0	1456168.0	721056.0	0.311680	0.702847
     29344.74	0.13517	2061420.0	1509249.0	747342.0	0.311783	0.702845
     29345.24	0.13769	2101945.0	1539353.0	762493.0	0.311501	0.702524
     29345.73	0.13059	1995381.0	1460982.0	723295.0	0.311726	0.703047
     29346.23	0.13590	2078346.0	1521570.0	753739.0	0.311830	0.702452
     29346.72	0.14112	2151276.0	1575661.0	780313.0	0.311386	0.702735
     29347.22	0.11543	1760531.0	1289473.0	638762.0	0.311382	0.702457
     29347.72	0.11980	1827371.0	1338279.0	663018.0	0.311494	0.702338
     29348.21	0.13398	2052652.0	1503860.0	744864.0	0.311097	0.702589
     29348.71	0.13825	2109253.0	1545465.0	765435.0	0.311009	0.702636
     29349.20	0.13604	2085372.0	1527660.0	756287.0	0.311210	0.703071
     29349.70	0.12700	1942747.0	1423178.0	704200.0	0.311211	0.703585
     29350.19	0.13200	2004080.0	1468283.0	727026.0	0.311091	0.702887
     29350.69	0.14025	2146224.0	1572939.0	778552.0	0.310764	0.703265
     29351.18	0.11861	1814431.0	1329310.0	657712.0	0.311112	0.703648
     29351.68	0.12708	1945122.0	1425360.0	705288.0	0.310900	0.703573
     29352.17	0.12766	1952199.0	1431206.0	708116.0	0.310439	0.703665
     29352.67	0.12193	1861314.0	1364427.0	674896.0	0.310548	0.703931
     29353.16	0.11927	1823640.0	1336835.0	661159.0	0.310530	0.704066
     29353.66	0.12754	1941728.0	1424162.0	704322.0	0.309995	0.704103
     29354.16	0.13297	2029758.0	1488280.0	736156.0	0.310295	0.703934
     29354.65	0.13087	1996650.0	1464223.0	723639.0	0.310146	0.704787
     29355.15	0.11995	1831670.0	1343232.0	663691.0	0.310149	0.705017
     29355.64	0.12815	1958888.0	1436767.0	709949.0	0.309982	0.704958
     29356.14	0.12471	1906279.0	1398065.0	690533.0	0.310064	0.705381
     29356.63	0.11944	1825200.0	1339019.0	661144.0	0.309752	0.705721
     29357.13	0.12551	1915758.0	1405527.0	693883.0	0.309701	0.705864
     29357.63	0.13014	1985724.0	1457011.0	719148.0	0.309597	0.706075
     29358.12	0.11071	1681059.0	1233541.0	608966.0	0.309535	0.705882
     29358.62	0.12139	1844638.0	1353574.0	667988.0	0.309535	0.706234
     29359.11	0.12779	1953705.0	1433555.0	707035.0	0.309570	0.706832
     29359.61	0.11854	1810596.0	1328450.0	654995.0	0.309643	0.707141
     29360.10	0.11821	1805102.0	1324952.0	653123.0	0.309241	0.707366
     29360.60	0.12672	1932704.0	1418779.0	699243.0	0.309123	0.707554
     29361.09	0.11580	1768918.0	1298781.0	640044.0	0.308942	0.707644
     29361.59	0.13581	2070513.0	1519762.0	749066.0	0.309243	0.707482
     29362.09	0.12312	1881610.0	1381559.0	680659.0	0.308915	0.707906
     29362.58	0.13473	2047628.0	1503519.0	740412.0	0.308874	0.708357
     29363.08	0.12798	1949142.0	1431758.0	705213.0	0.308486	0.708158
     29363.57	0.12746	1947999.0	1430350.0	704306.0	0.308884	0.708462
     29364.07	0.13225	2022842.0	1485438.0	731513.0	0.308794	0.708350
     29364.57	0.11992	1827474.0	1342227.0	660675.0	0.308605	0.708823
     29365.06	0.12015	1820550.0	1337107.0	658452.0	0.308630	0.708372
     29365.56	0.12425	1893292.0	1390913.0	684859.0	0.308357	0.708503
     29366.05	0.12717	1935263.0	1422167.0	700028.0	0.308061	0.708817
     29366.55	0.13061	1964035.0	1443467.0	710543.0	0.307953	0.708774
     29367.05	0.13076	1975252.0	1451557.0	714604.0	0.308059	0.708664
     29367.54	0.11557	1748588.0	1284909.0	632635.0	0.308121	0.708550
     29368.04	0.13992	2128974.0	1564515.0	769934.0	0.308064	0.709026
     29368.53	0.12214	1853346.0	1362178.0	670670.0	0.307908	0.708563
     29369.03	0.12057	1833635.0	1347711.0	663553.0	0.307893	0.708554
     29369.53	0.14070	2139962.0	1572840.0	774708.0	0.307905	0.708152
     29370.02	0.12291	1871679.0	1376347.0	677640.0	0.307403	0.708572
     29370.52	0.13535	2055903.0	1511472.0	744215.0	0.307631	0.708509
     29371.01	0.12372	1881077.0	1382771.0	681469.0	0.307755	0.707594
     29371.51	0.13214	2012161.0	1479305.0	728492.0	0.307637	0.708351
     29372.01	0.12377	1888420.0	1388935.0	684267.0	0.307203	0.707944
     29372.50	0.12092	1845575.0	1357224.0	668644.0	0.307349	0.707945
     29373.00	0.13002	1980557.0	1456363.0	718002.0	0.307436	0.707225
     29373.49	0.12837	1950521.0	1434121.0	706924.0	0.307544	0.707384
     29373.99	0.12579	1912736.0	1406659.0	693812.0	0.307317	0.706772
     29374.49	0.12689	1927713.0	1417558.0	699464.0	0.307399	0.706377
     29374.98	0.11944	1820179.0	1338621.0	660424.0	0.307295	0.706513
     29375.48	0.12250	1867127.0	1373108.0	677855.0	0.307324	0.705899
     29375.98	0.12274	1862096.0	1369256.0	676030.0	0.307435	0.705785
     29376.47	0.10904	1648615.0	1212109.0	599032.0	0.307574	0.704802
     29376.97	0.12332	1876707.0	1379878.0	681763.0	0.307524	0.705068
     29377.46	0.11299	1723648.0	1267430.0	626647.0	0.307452	0.704363
     29377.96	0.12561	1907476.0	1402620.0	693961.0	0.307439	0.703681
     29378.46	0.11576	1760180.0	1294234.0	640204.0	0.307497	0.703887
     29378.95	0.13494	2054974.0	1511037.0	748070.0	0.307467	0.703055
     29379.45	0.092044	1401916.0	1030733.0	510236.0	0.307570	0.703152
     29379.95	0.11584	1761488.0	1295314.0	641531.0	0.307406	0.702651
     29380.44	0.12399	1880643.0	1382885.0	685351.0	0.307442	0.701996
     29380.94	0.11809	1792733.0	1318227.0	653344.0	0.307454	0.701939
     29381.44	0.12685	1935120.0	1423109.0	705816.0	0.307325	0.701245
     29381.93	0.12506	1897745.0	1395830.0	693163.0	0.307177	0.699979
     29382.43	0.13901	2117941.0	1557406.0	773421.0	0.307423	0.699953
     29382.93	0.14398	2193344.0	1612806.0	801023.0	0.307452	0.699841
     29383.42	0.12232	1858870.0	1366836.0	679067.0	0.307470	0.699534
     29383.92	0.11314	1725038.0	1268393.0	630587.0	0.307498	0.698855
     29384.41	0.12909	1962716.0	1443273.0	717954.0	0.307416	0.698263
     29384.91	0.12956	1969352.0	1448047.0	720742.0	0.307489	0.697690
     29385.41	0.12345	1879859.0	1382640.0	688222.0	0.307202	0.697639
     29385.90	0.13756	2094848.0	1540247.0	767494.0	0.307538	0.696567
     29386.40	0.13141	2002662.0	1472811.0	733941.0	0.307304	0.696499
     29386.90	0.12522	1904617.0	1400709.0	698613.0	0.307302	0.695637
     29387.39	0.12974	1975847.0	1453516.0	725014.0	0.307012	0.695550
     29387.89	0.13017	1976504.0	1453750.0	725655.0	0.307183	0.694827
     29388.39	0.13588	2064858.0	1518739.0	758361.0	0.307181	0.694476
     29388.88	0.12535	1909142.0	1404182.0	701421.0	0.307199	0.694102
     29389.38	0.14237	2167860.0	1594230.0	796940.0	0.307350	0.693367
     29389.88	0.13046	1981231.0	1457575.0	728999.0	0.306944	0.692857
     29390.37	0.13330	2028773.0	1492211.0	746757.0	0.307172	0.692274
     29390.87	0.13261	2009975.0	1478516.0	740101.0	0.307083	0.692007
     29391.37	0.14271	2174122.0	1598981.0	800579.0	0.307258	0.691787
     29391.87	0.11432	1731856.0	1274172.0	638299.0	0.306897	0.691245
     29392.36	0.12611	1910201.0	1404976.0	704200.0	0.307188	0.690713
     29392.86	0.12904	1958076.0	1440257.0	722222.0	0.307141	0.690244
     29393.36	0.12966	1966961.0	1447090.0	726100.0	0.306935	0.689622
     29393.85	0.12630	1912456.0	1407124.0	706362.0	0.306840	0.689175
     29394.35	0.12569	1900971.0	1398581.0	701955.0	0.306907	0.689344
     29394.85	0.12739	1935354.0	1423855.0	714936.0	0.306922	0.688930
     29395.34	0.12289	1867725.0	1374154.0	690418.0	0.306883	0.688296
     29395.84	0.11841	1800791.0	1324365.0	665662.0	0.307293	0.687906
     29396.34	0.13627	2066659.0	1520548.0	764249.0	0.306862	0.687932
     29396.83	0.11464	1736146.0	1277536.0	642218.0	0.306734	0.687761
     29397.33	0.13061	1983960.0	1459892.0	734548.0	0.306732	0.686862
     29397.83	0.11792	1786960.0	1315265.0	661739.0	0.306478	0.686922
     29398.33	0.13030	1979447.0	1456720.0	733392.0	0.306630	0.686262
     29398.82	0.11775	1784005.0	1313186.0	661058.0	0.306405	0.686370
     29399.32	0.13177	1990861.0	1465117.0	737126.0	0.306632	0.686932
     29399.82	0.11215	1693513.0	1246123.0	627601.0	0.306768	0.685888
     29400.31	0.12795	1936080.0	1424544.0	717663.0	0.306814	0.685607
     29400.81	0.11600	1760400.0	1295434.0	652492.0	0.306695	0.685802
     29401.31	0.11885	1805768.0	1328718.0	669278.0	0.306771	0.685770
     29401.80	0.12525	1900225.0	1398825.0	704667.0	0.306340	0.685663
     29402.30	0.11405	1721580.0	1267322.0	638693.0	0.306336	0.685237
     29402.80	0.14503	2168512.0	1596788.0	804330.0	0.306047	0.685740
     29403.30	0.12503	1877307.0	1381951.0	696451.0	0.306342	0.685254
     29403.79	0.13262	1999150.0	1471540.0	741797.0	0.306413	0.684989
     29404.29	0.11962	1798537.0	1323987.0	667633.0	0.306326	0.684664
     29404.79	0.13136	1987565.0	1463440.0	737944.0	0.306120	0.684677
     29405.29	0.12862	1950234.0	1436275.0	723827.0	0.305896	0.685256
     29405.78	0.12593	1907551.0	1404498.0	707900.0	0.306140	0.685132
     29406.28	0.12466	1890926.0	1392315.0	701840.0	0.306099	0.685018
     29406.78	0.12365	1875620.0	1381085.0	696612.0	0.306070	0.684396
     29407.27	0.11188	1684735.0	1240418.0	625388.0	0.306160	0.684831
     29407.77	0.14107	2121028.0	1562060.0	787302.0	0.305895	0.685149
     29408.27	0.10678	1609210.0	1185357.0	597637.0	0.305699	0.684816
     29408.77	0.13004	1965551.0	1447523.0	729693.0	0.305919	0.684985
     29409.26	0.13158	1992874.0	1467933.0	740069.0	0.305723	0.684867
     29409.76	0.13100	1984002.0	1461047.0	736791.0	0.305963	0.684604
     29410.26	0.13109	1986626.0	1463243.0	737662.0	0.305783	0.684925
     29410.76	0.13085	1983761.0	1461330.0	736737.0	0.305648	0.684871
     29411.25	0.13183	1991828.0	1467047.0	739167.0	0.305801	0.685483
     29411.75	0.13010	1973822.0	1454007.0	732635.0	0.305649	0.685431
     29412.25	0.12575	1905796.0	1403996.0	707477.0	0.305577	0.685373
     29412.75	0.12647	1914599.0	1411017.0	710928.0	0.305197	0.685495
     29413.24	0.12085	1830507.0	1348569.0	679495.0	0.305549	0.685449
     29413.74	0.12644	1914022.0	1410387.0	710466.0	0.305343	0.685698
     29414.24	0.12887	1950641.0	1437901.0	724203.0	0.304974	0.685868
     29414.74	0.12484	1891347.0	1393743.0	701830.0	0.305296	0.686057
     29415.23	0.13950	2111013.0	1555305.0	783338.0	0.305496	0.685863
     29415.73	0.12909	1956628.0	1442245.0	726262.0	0.305022	0.686045
     29416.23	0.11229	1700017.0	1252980.0	630857.0	0.305114	0.686201
     29416.73	0.11199	1698420.0	1251396.0	630297.0	0.305439	0.685824
     29417.22	0.12871	1950262.0	1437569.0	723743.0	0.305010	0.686272
     29417.72	0.10993	1663888.0	1226859.0	617350.0	0.304700	0.686776
     29418.22	0.11590	1750997.0	1291020.0	649641.0	0.304753	0.686768
     29418.72	0.12842	1924902.0	1419278.0	714070.0	0.304727	0.686923
     29419.22	0.10543	1588041.0	1170412.0	589010.0	0.305145	0.686668
     29419.71	0.13125	1976338.0	1457294.0	733047.0	0.304664	0.687127
     29420.21	0.10105	1526303.0	1125404.0	566249.0	0.304706	0.686863
     29420.71	0.11998	1812558.0	1336553.0	672351.0	0.304645	0.687069
     29421.21	0.11104	1677905.0	1237409.0	622390.0	0.304526	0.687208
     29421.70	0.12079	1823134.0	1344862.0	676236.0	0.304266	0.687505
     29422.20	0.13113	1980503.0	1460306.0	734254.0	0.304705	0.687546
     29422.70	0.12533	1888765.0	1393060.0	700476.0	0.304420	0.687498
     29423.20	0.13360	2018271.0	1488614.0	748713.0	0.304396	0.687245
     29423.70	0.14096	2121863.0	1564644.0	786431.0	0.304636	0.687909
     29424.19	0.12377	1859099.0	1371131.0	689367.0	0.304456	0.687617
     29424.69	0.11428	1718684.0	1267786.0	637328.0	0.304287	0.687743
     29425.19	0.14083	2127227.0	1569176.0	788725.0	0.304269	0.687888
     29425.69	0.12241	1850288.0	1364907.0	686535.0	0.304255	0.687184
     29426.19	0.13212	1997328.0	1473460.0	740816.0	0.304197	0.687616
     29426.68	0.12835	1938748.0	1430424.0	718920.0	0.304072	0.687976
     29427.18	0.13014	1965513.0	1450033.0	729324.0	0.304167	0.687224
     29427.68	0.13867	2096038.0	1546625.0	777411.0	0.303974	0.687861
     29428.18	0.12567	1893081.0	1396722.0	702324.0	0.304078	0.687489
     29428.68	0.11368	1720021.0	1269204.0	638217.0	0.303947	0.687467
     29429.17	0.13807	2082464.0	1536366.0	772691.0	0.304132	0.687296
     29429.67	0.13513	2041178.0	1505881.0	757474.0	0.304149	0.687144
     29430.17	0.13273	2007079.0	1480660.0	744934.0	0.304192	0.686948
     29430.67	0.13454	2032852.0	1499692.0	754555.0	0.304180	0.686887
     29431.17	0.13161	1986906.0	1466462.0	737887.0	0.303726	0.686817
     29431.66	0.13512	2038469.0	1504039.0	756782.0	0.304045	0.686834
     29432.16	0.12783	1929637.0	1424005.0	716789.0	0.303859	0.686447
     29432.66	0.12897	1950632.0	1439570.0	724432.0	0.303809	0.686712
     29433.16	0.13333	2015826.0	1487660.0	748445.0	0.303825	0.686962
     29433.66	0.12817	1936621.0	1429637.0	719783.0	0.303524	0.686226
     29434.16	0.12180	1829309.0	1349814.0	679869.0	0.303971	0.685822
     29434.65	0.12960	1949220.0	1438468.0	724750.0	0.303851	0.685507
     29435.15	0.11980	1808904.0	1335021.0	672497.0	0.303774	0.685705
     29435.65	0.13167	1987512.0	1466980.0	739251.0	0.303678	0.685324
     29436.15	0.12334	1860381.0	1373609.0	692007.0	0.303340	0.685601
     29436.65	0.11766	1774274.0	1309570.0	660276.0	0.303692	0.684796
     29437.15	0.13385	2019948.0	1490964.0	751644.0	0.303649	0.684915
     29437.64	0.12255	1845535.0	1362280.0	687025.0	0.303609	0.684544
     29438.14	0.12158	1832028.0	1352192.0	681951.0	0.303697	0.684524
     29438.64	0.12535	1891083.0	1396116.0	704576.0	0.303456	0.683853
     29439.14	0.11641	1758521.0	1297726.0	654951.0	0.303860	0.683808
     29439.64	0.12064	1818342.0	1342120.0	677559.0	0.303675	0.683509
     29440.14	0.11921	1787735.0	1320036.0	666554.0	0.303290	0.683293
     29440.63	0.11604	1743101.0	1286816.0	650094.0	0.303495	0.682809
     29441.13	0.11828	1782624.0	1316373.0	665175.0	0.303206	0.682585
     29441.63	0.13246	1998849.0	1475954.0	745915.0	0.303267	0.682448
     29442.13	0.12542	1891695.0	1396882.0	706241.0	0.303231	0.682041
     29442.63	0.12687	1912348.0	1412016.0	714169.0	0.303313	0.681654
     29443.13	0.13400	2021958.0	1493123.0	755567.0	0.303196	0.681157
     29443.63	0.11452	1728999.0	1276408.0	646134.0	0.303493	0.680798
     29444.12	0.13064	1964301.0	1450864.0	734363.0	0.302977	0.680911
     29444.62	0.13532	2041383.0	1507848.0	763448.0	0.302944	0.680594
     29445.12	0.12821	1934855.0	1428669.0	724142.0	0.303289	0.679511
     29445.62	0.12473	1877374.0	1386546.0	702591.0	0.303058	0.679796
     29446.12	0.12382	1858437.0	1372243.0	696042.0	0.303289	0.678792
     29446.62	0.12272	1852418.0	1367881.0	693562.0	0.303229	0.679177
     29447.12	0.13029	1959334.0	1447076.0	734673.0	0.303060	0.677875
     29447.62	0.12139	1827965.0	1350177.0	685609.0	0.302968	0.677683
     29448.11	0.11586	1746759.0	1290177.0	655190.0	0.302983	0.677609
     29448.61	0.13236	1995477.0	1473682.0	748720.0	0.303119	0.677154
     29449.11	0.12462	1878232.0	1387098.0	704889.0	0.303117	0.676929
     29449.61	0.13026	1960439.0	1448389.0	736439.0	0.302717	0.676381
     29450.11	0.13376	2011035.0	1484810.0	755015.0	0.303363	0.676304
     29450.61	0.12660	1908282.0	1409454.0	717274.0	0.303001	0.675500
     29451.11	0.13306	2000538.0	1477829.0	752220.0	0.302842	0.675301
     29451.61	0.12529	1883389.0	1391459.0	708546.0	0.302720	0.674893
     29452.10	0.12034	1809447.0	1336568.0	681078.0	0.302916	0.674184
     29452.60	0.13727	2069002.0	1528779.0	779165.0	0.302597	0.674002
     29453.10	0.12887	1941797.0	1434658.0	731638.0	0.302687	0.673396
     29453.60	0.12006	1809120.0	1336460.0	681684.0	0.302816	0.673213
     29454.10	0.13094	1964792.0	1451445.0	740535.0	0.302827	0.672942
     29454.60	0.12190	1826604.0	1349324.0	688917.0	0.302855	0.672238
     29455.10	0.12863	1931434.0	1426942.0	728762.0	0.302729	0.671942
     29455.60	0.11932	1794518.0	1326351.0	677338.0	0.302305	0.672016
     29456.10	0.11549	1734043.0	1281601.0	654914.0	0.302346	0.671361
     29456.59	0.12571	1894005.0	1399435.0	715542.0	0.302625	0.670784
     29457.09	0.11663	1753148.0	1295453.0	662453.0	0.302553	0.670666
     29457.59	0.11745	1763841.0	1303648.0	666946.0	0.302327	0.670213
     29458.09	0.12181	1828865.0	1351942.0	692004.0	0.302153	0.669706
     29458.59	0.11677	1754540.0	1297117.0	664400.0	0.302063	0.669015
     29459.09	0.11799	1774108.0	1311205.0	671992.0	0.302351	0.668455
     29459.59	0.11684	1757090.0	1298959.0	665527.0	0.302096	0.668739
     29460.09	0.10968	1648713.0	1218917.0	624783.0	0.302032	0.668314
     29460.59	0.11702	1747787.0	1292824.0	663028.0	0.301521	0.667767
     29461.09	0.12650	1899500.0	1404291.0	720378.0	0.302058	0.667512
     29461.59	0.11729	1757544.0	1299623.0	666639.0	0.301843	0.667581
     29462.09	0.12745	1889479.0	1397228.0	717113.0	0.301811	0.667012
     29462.58	0.13083	1951871.0	1443442.0	741279.0	0.301758	0.666409
     29463.08	0.14362	2152259.0	1591358.0	817513.0	0.301930	0.666076
     29463.58	0.12269	1824168.0	1349423.0	693414.0	0.301447	0.665805
     29464.08	0.11673	1742265.0	1288748.0	662242.0	0.301515	0.665795
     29464.58	0.12980	1944207.0	1437837.0	739390.0	0.301714	0.665070
     29465.08	0.13424	2006682.0	1484472.0	763433.0	0.301423	0.664989
     29465.58	0.12596	1884481.0	1394511.0	717368.0	0.301109	0.664710
     29466.08	0.12859	1924151.0	1423724.0	732856.0	0.301209	0.664082
     29466.58	0.14453	2165089.0	1602290.0	824624.0	0.301028	0.664262
     29467.08	0.16914	2534530.0	1875435.0	965808.0	0.301168	0.663631
     29467.58	0.096966	1452944.0	1075274.0	553601.0	0.301016	0.663887
     29468.08	0.10076	1509339.0	1116779.0	575273.0	0.301223	0.663359
     29468.58	0.13830	2077219.0	1537246.0	791930.0	0.301037	0.663275
     29469.08	0.12832	1909344.0	1412971.0	728368.0	0.301065	0.662643
     29469.58	0.14018	2101091.0	1555106.0	801595.0	0.300913	0.662695
     29470.07	0.14147	2120995.0	1569971.0	809136.0	0.300828	0.662845
     29470.57	0.13879	2077110.0	1537896.0	793170.0	0.300562	0.662133
     29471.07	0.14622	2190675.0	1622044.0	836331.0	0.300523	0.662418
     29471.57	0.10917	1623285.0	1202087.0	619953.0	0.300393	0.662171
     29472.07	0.12589	1880495.0	1392254.0	718631.0	0.300611	0.661331
     29472.57	0.13147	1972539.0	1460610.0	753788.0	0.300467	0.661498
     29473.07	0.12337	1850776.0	1370368.0	706932.0	0.300526	0.661900
     29473.57	0.12944	1936451.0	1434322.0	740274.0	0.300165	0.661427
     29474.07	0.13494	2022285.0	1497786.0	772762.0	0.300240	0.661772
     29474.57	0.14465	2171722.0	1608203.0	830203.0	0.300403	0.661202
     29475.07	0.11077	1659041.0	1228875.0	634507.0	0.300141	0.661006
     29475.57	0.12007	1794937.0	1329646.0	686502.0	0.300057	0.661059
     29476.07	0.11979	1789424.0	1325719.0	684586.0	0.299939	0.660896
     29476.57	0.11838	1769960.0	1311159.0	677053.0	0.300045	0.660917
     29477.07	0.12946	1939778.0	1437035.0	742283.0	0.299992	0.660607
     29477.57	0.12394	1852543.0	1372778.0	709071.0	0.299723	0.660636
     29478.07	0.12294	1835239.0	1359781.0	702380.0	0.299851	0.660604
     29478.57	0.12675	1894104.0	1403732.0	724968.0	0.299611	0.660762
     29479.07	0.11525	1721276.0	1275367.0	658873.0	0.299832	0.660458
     29479.57	0.11434	1705031.0	1263689.0	652733.0	0.299548	0.660622
     29480.07	0.12900	1920085.0	1423029.0	735186.0	0.299582	0.660419
     29480.57	0.12007	1793206.0	1329062.0	686683.0	0.299532	0.660356
     29481.07	0.12482	1861310.0	1379698.0	712743.0	0.299416	0.660499
     29481.57	0.12092	1810544.0	1342025.0	693506.0	0.299448	0.660175
     29482.07	0.12197	1812777.0	1343833.0	694343.0	0.299334	0.660315
     29482.57	0.15671	2333261.0	1729715.0	893753.0	0.299310	0.660282
     29483.07	0.12034	1798235.0	1333135.0	688752.0	0.299272	0.660407
     29483.57	0.11889	1765007.0	1308494.0	676028.0	0.299278	0.660398
     29484.07	0.13107	1952398.0	1447520.0	747708.0	0.299207	0.660594
     29484.57	0.12643	1880381.0	1394309.0	720335.0	0.299075	0.660438
     29485.07	0.12490	1867461.0	1384764.0	715315.0	0.299050	0.660562
     29485.57	0.12576	1868004.0	1385066.0	715727.0	0.299123	0.660204
     29486.07	0.12277	1829609.0	1357218.0	701013.0	0.298665	0.660666
     29486.57	0.14238	2126938.0	1577429.0	814811.0	0.298887	0.660595
     29487.07	0.11425	1706827.0	1265720.0	653853.0	0.298995	0.660514
     29487.57	0.12107	1808892.0	1341908.0	693124.0	0.298622	0.660639
     29488.07	0.12448	1860209.0	1379846.0	712774.0	0.298717	0.660563
     29488.57	0.11841	1769057.0	1312405.0	677784.0	0.298585	0.660788
     29489.07	0.13428	2006574.0	1488251.0	768794.0	0.298827	0.660534
     29489.57	0.13302	1980805.0	1469591.0	759018.0	0.298519	0.660714
     29490.07	0.16582	2471982.0	1834057.0	947344.0	0.298490	0.660623
     29490.57	0.11883	1772691.0	1314895.0	679244.0	0.298742	0.660532
     29491.07	0.098259	1459492.0	1082894.0	559098.0	0.298451	0.661068
     29491.57	0.11869	1771665.0	1314288.0	678473.0	0.298625	0.661206
     29492.07	0.12795	1910016.0	1416802.0	731756.0	0.298709	0.660710
     29492.57	0.12136	1815170.0	1346670.0	695512.0	0.298544	0.660742
     29493.07	0.13398	1992602.0	1478749.0	763522.0	0.298245	0.661010
     29493.57	0.13657	2037744.0	1512145.0	780685.0	0.298314	0.661113
     29494.07	0.13348	1983583.0	1472273.0	760345.0	0.298097	0.660790
     29494.57	0.10439	1559582.0	1157550.0	597562.0	0.298112	0.661203
     29495.07	0.11542	1724327.0	1279458.0	660844.0	0.298400	0.660674
     29495.57	0.11964	1788323.0	1327331.0	685404.0	0.298108	0.660917
     29496.07	0.11913	1781217.0	1322021.0	682882.0	0.298135	0.660595
     29496.57	0.12760	1908135.0	1416386.0	731511.0	0.298018	0.660752
     29497.07	0.11882	1775636.0	1317911.0	680552.0	0.298111	0.660899
     29497.57	0.14434	2152571.0	1598100.0	825362.0	0.297848	0.660749
     29498.07	0.10134	1514638.0	1124229.0	580831.0	0.298079	0.660393
     29498.57	0.11768	1753011.0	1301314.0	672084.0	0.297960	0.660746
     29499.07	0.099932	1490696.0	1106507.0	571513.0	0.298035	0.660676
     29499.57	0.11228	1674370.0	1243494.0	642326.0	0.297512	0.660584
     29500.07	0.11093	1657428.0	1230771.0	635836.0	0.297626	0.660455
     29500.58	0.13410	2004667.0	1488459.0	768746.0	0.297737	0.660736
     29501.08	0.13020	1932810.0	1435208.0	741409.0	0.297665	0.660513
     29501.58	0.12532	1860039.0	1381059.0	713682.0	0.297747	0.660168
     29502.08	0.12018	1776364.0	1318826.0	681548.0	0.297827	0.660131
     29502.58	0.12874	1920175.0	1425989.0	736873.0	0.297551	0.660205
     29503.08	0.12714	1897200.0	1409374.0	728239.0	0.297233	0.660272
     29503.58	0.13972	2085598.0	1548937.0	800327.0	0.297487	0.660304
     29504.08	0.12806	1906465.0	1415934.0	731852.0	0.297461	0.659966
     29504.58	0.12968	1936061.0	1438374.0	743337.0	0.297142	0.660119
     29505.08	0.14605	2173582.0	1614419.0	834297.0	0.297401	0.660141
     29505.58	0.13554	2011020.0	1494003.0	772514.0	0.297183	0.659564
     29506.08	0.14142	2106846.0	1565168.0	809190.0	0.297199	0.659715
     29506.58	0.10475	1563745.0	1161932.0	600542.0	0.296999	0.660007
     29507.08	0.12981	1936427.0	1438824.0	744054.0	0.297018	0.659468
     29507.58	0.11511	1710682.0	1271032.0	657237.0	0.297063	0.659540
     29508.09	0.14179	2110932.0	1568137.0	811417.0	0.297241	0.658861
     29508.59	0.16238	2419296.0	1798124.0	930194.0	0.296733	0.659106
     29509.09	0.14967	2228433.0	1655830.0	857053.0	0.296996	0.658558
     29509.59	0.18869	2809741.0	2087775.0	1080165.0	0.296993	0.658985
     29510.09	0.089109	1320904.0	981831.0	508129.0	0.296652	0.658684
     29510.59	0.075957	1129677.0	839194.0	434369.0	0.297245	0.658548
     29511.09	0.12239	1824280.0	1355844.0	701829.0	0.296761	0.658490
     29511.59	0.13516	2009992.0	1493851.0	773317.0	0.296773	0.658424
     29512.09	0.12804	1899245.0	1411567.0	731279.0	0.296756	0.657661
     29512.59	0.12581	1869877.0	1389895.0	719743.0	0.296644	0.658089
     29513.09	0.12310	1835549.0	1364253.0	706734.0	0.296737	0.657708
     29513.60	0.12460	1853194.0	1377604.0	713929.0	0.296565	0.657318
     29514.10	0.12788	1899040.0	1411796.0	731550.0	0.296486	0.657452
     29514.60	0.12744	1898122.0	1411213.0	731854.0	0.296415	0.656624
     29515.10	0.12780	1899590.0	1412137.0	731958.0	0.296534	0.657136
     29515.60	0.11881	1767755.0	1314040.0	681242.0	0.296604	0.656944
     29516.10	0.13125	1951339.0	1450964.0	752609.0	0.296288	0.656438
     29516.60	0.12375	1835859.0	1365171.0	708211.0	0.296233	0.656293
     29517.10	0.12142	1807862.0	1344414.0	697865.0	0.296187	0.655688
     29517.60	0.11648	1727186.0	1284613.0	666734.0	0.296036	0.655822
     29518.10	0.11765	1748651.0	1300421.0	675157.0	0.296157	0.655498
     29518.61	0.12698	1892217.0	1406918.0	730692.0	0.296348	0.655165
     29519.11	0.11855	1760744.0	1309404.0	680246.0	0.296164	0.654873
     29519.61	0.11890	1767376.0	1314163.0	682756.0	0.296296	0.654818
     29520.11	0.13228	1968438.0	1463755.0	760600.0	0.296235	0.654653
     29520.61	0.11628	1730501.0	1286876.0	668936.0	0.296193	0.654284
     29521.11	0.13680	2033826.0	1512327.0	786366.0	0.296269	0.653982
     29521.61	0.12002	1783286.0	1326350.0	689690.0	0.296027	0.653944
     29522.11	0.13059	1940236.0	1443122.0	750535.0	0.296001	0.653778
     29522.62	0.12759	1898006.0	1411891.0	734869.0	0.295874	0.652993
     29523.12	0.12882	1914002.0	1423743.0	741121.0	0.295907	0.652881
     29523.62	0.12742	1884270.0	1401700.0	729882.0	0.295855	0.652558
     29524.12	0.12952	1925534.0	1432413.0	745891.0	0.295843	0.652536
     29524.62	0.11476	1701170.0	1265251.0	659212.0	0.296046	0.651981
     29525.12	0.12408	1846633.0	1373396.0	715986.0	0.296077	0.651381
     29525.62	0.12411	1846381.0	1373584.0	716109.0	0.295804	0.651346
     29526.12	0.11691	1737642.0	1292429.0	673491.0	0.296006	0.651804
     29526.63	0.12609	1872405.0	1393395.0	726485.0	0.295480	0.651281
     29527.13	0.13015	1932424.0	1437167.0	749731.0	0.296101	0.650715
     29527.63	0.13216	1962578.0	1460007.0	761786.0	0.295818	0.650531
     29528.13	0.13479	2000392.0	1488030.0	776676.0	0.295890	0.650185
     29528.63	0.12012	1773346.0	1319477.0	688780.0	0.295633	0.650069
     29529.13	0.13449	1992655.0	1482862.0	774349.0	0.295494	0.649707
     29529.64	0.12399	1837806.0	1367767.0	714302.0	0.295393	0.649629
     29530.14	0.12166	1804715.0	1342501.0	701642.0	0.295868	0.648866
     29530.64	0.13693	2033575.0	1513446.0	791079.0	0.295406	0.648747
     29531.14	0.12582	1860740.0	1384415.0	723886.0	0.295697	0.648399
     29531.64	0.12925	1907964.0	1419679.0	742665.0	0.295606	0.647941
     29532.14	0.12334	1828944.0	1360916.0	711929.0	0.295581	0.647935
     29532.64	0.13050	1930403.0	1436143.0	751696.0	0.295768	0.647384
     29533.15	0.12599	1863917.0	1387329.0	726304.0	0.295300	0.647167
     29533.65	0.11387	1670208.0	1242958.0	651114.0	0.295454	0.646565
     29534.15	0.12200	1806383.0	1344225.0	704046.0	0.295509	0.646729
     29534.65	0.12683	1870740.0	1392441.0	729488.0	0.295276	0.646471
     29535.15	0.11893	1762639.0	1311991.0	687451.0	0.295266	0.646311
     29535.65	0.11960	1767660.0	1315874.0	690027.0	0.295156	0.645526
     29536.16	0.10641	1571556.0	1169651.0	613391.0	0.295361	0.645458
     29536.66	0.12469	1848078.0	1375986.0	721756.0	0.294976	0.645239
     29537.16	0.11617	1720394.0	1280512.0	672121.0	0.295293	0.644577
     29537.66	0.10359	1527384.0	1137031.0	596940.0	0.295136	0.644359
     29538.16	0.11211	1653616.0	1230999.0	646429.0	0.295138	0.644118
     29538.67	0.12394	1829427.0	1361879.0	715217.0	0.295137	0.644035
     29539.17	0.12374	1829897.0	1362327.0	715692.0	0.295065	0.643700
     29539.67	0.12214	1804057.0	1343434.0	705933.0	0.294809	0.643464
     29540.17	0.13457	1988122.0	1480191.0	777981.0	0.295019	0.643224
     29540.67	0.10852	1610566.0	1199265.0	630489.0	0.294877	0.642968
     29541.17	0.13893	2055609.0	1530603.0	805215.0	0.294910	0.642308
     29541.68	0.12270	1812967.0	1350129.0	710061.0	0.294765	0.642605
     29542.18	0.13713	2023814.0	1507080.0	793130.0	0.294810	0.641942
     29542.68	0.12836	1888094.0	1406222.0	740184.0	0.294661	0.641763
     29543.18	0.13382	1975881.0	1471676.0	774818.0	0.294612	0.641529
     29543.68	0.12669	1864881.0	1389073.0	731245.0	0.294561	0.641643
     29544.19	0.17765	2618032.0	1950206.0	1026786.0	0.294488	0.641501
     29544.69	0.10550	1553130.0	1156778.0	609499.0	0.294634	0.640757
     29545.19	0.099998	1469004.0	1093982.0	576345.0	0.294760	0.640873
     29545.69	0.13177	1946757.0	1449945.0	764247.0	0.294639	0.640390
     29546.19	0.13684	2010309.0	1497182.0	789402.0	0.294704	0.640064
     29546.70	0.13005	1908938.0	1422385.0	749824.0	0.294212	0.640252
     29547.20	0.13449	1974548.0	1471031.0	775725.0	0.294376	0.639921
     29547.70	0.14730	2167272.0	1615139.0	851983.0	0.294048	0.639610
     29548.20	0.13292	1962369.0	1461580.0	771169.0	0.294634	0.639366
     29548.71	0.12691	1870516.0	1393798.0	735570.0	0.294182	0.639142
     29549.21	0.11960	1769251.0	1318161.0	695368.0	0.294319	0.639552
     29549.71	0.13338	1966175.0	1465229.0	773368.0	0.294078	0.639012
     29550.21	0.13150	1936876.0	1443486.0	762437.0	0.294015	0.638296
     29550.71	0.13187	1927166.0	1436112.0	758379.0	0.294111	0.638511
     29551.22	0.12286	1810379.0	1349131.0	712682.0	0.294076	0.638181
     29551.72	0.13253	1939118.0	1445190.0	763129.0	0.293992	0.638569
     29552.22	0.12509	1838029.0	1369632.0	723579.0	0.294152	0.638088
     29552.72	0.11737	1733140.0	1291591.0	682608.0	0.294060	0.637709
     29553.23	0.12769	1882668.0	1402641.0	741537.0	0.294333	0.637387
     29553.73	0.13642	1998015.0	1489133.0	787191.0	0.293960	0.637478
     29554.23	0.12342	1817893.0	1355177.0	716274.0	0.293746	0.637625
     29554.73	0.12822	1883905.0	1404145.0	742505.0	0.293918	0.637154
     29555.24	0.12069	1778169.0	1325357.0	700666.0	0.293902	0.637406
     29555.74	0.12156	1790050.0	1333895.0	705839.0	0.294140	0.636471
     29556.24	0.12882	1903646.0	1419041.0	750606.0	0.293790	0.636856
     29556.74	0.10928	1611357.0	1200946.0	635384.0	0.293967	0.636635
     29557.24	0.12108	1786614.0	1331790.0	704479.0	0.293798	0.636821
     29557.75	0.11654	1715963.0	1279397.0	677021.0	0.293586	0.636442
     29558.25	0.12157	1790729.0	1335154.0	706438.0	0.293576	0.636566
     29558.75	0.12798	1887911.0	1407086.0	745023.0	0.293950	0.635861
     29559.26	0.11816	1744885.0	1301126.0	688828.0	0.293459	0.635994
     29559.76	0.14318	2108792.0	1572094.0	831971.0	0.293707	0.636366
     29560.26	0.11977	1763976.0	1315291.0	696315.0	0.293512	0.636011
     29560.76	0.11760	1730381.0	1290216.0	683135.0	0.293532	0.635872
     29561.27	0.12000	1766059.0	1316919.0	697154.0	0.293456	0.636044
     29561.77	0.14536	2133513.0	1591014.0	842300.0	0.293398	0.635991
     29562.27	0.13351	1970546.0	1469595.0	778128.0	0.293324	0.635851
     29562.77	0.12633	1858470.0	1385943.0	733905.0	0.293373	0.635756
     29563.28	0.13311	1956711.0	1459218.0	772782.0	0.293364	0.635659
     29563.78	0.14312	2107055.0	1571235.0	832129.0	0.293429	0.635630
     29564.28	0.069930	1017254.0	758854.0	402055.0	0.293053	0.635221
     29564.78	0.11935	1754419.0	1308601.0	693200.0	0.293179	0.635395
     29565.29	0.14083	2078835.0	1550425.0	821216.0	0.293279	0.635498
     29565.79	0.12058	1771484.0	1321178.0	699895.0	0.293294	0.635349
     29566.29	0.13135	1939191.0	1446424.0	766477.0	0.293177	0.635045
     29566.80	0.13016	1921195.0	1433190.0	759442.0	0.293045	0.635074
     29567.30	0.13215	1942432.0	1449015.0	767912.0	0.293057	0.634964
     29567.80	0.13885	2049472.0	1528787.0	809981.0	0.293108	0.635219
     29568.30	0.11812	1742885.0	1300173.0	688979.0	0.293044	0.635042
     29568.81	0.12344	1818041.0	1356339.0	718827.0	0.292970	0.634924
     29569.31	0.13988	2058879.0	1536034.0	814075.0	0.292958	0.634907
     29569.81	0.12289	1811186.0	1351584.0	716082.0	0.292705	0.635238
     29570.32	0.13210	1946264.0	1452142.0	769717.0	0.292872	0.634772
     29570.82	0.13135	1939844.0	1447278.0	767247.0	0.292923	0.634631
     29571.32	0.11978	1767789.0	1319270.0	699162.0	0.292651	0.634951
     29571.82	0.12726	1879479.0	1402597.0	743513.0	0.292669	0.634695
     29572.33	0.12048	1776755.0	1325939.0	703291.0	0.292668	0.634105
     29572.83	0.11750	1734397.0	1294332.0	686439.0	0.292665	0.634233
     29573.33	0.12330	1812620.0	1352960.0	717413.0	0.292479	0.634398
     29573.84	0.12757	1873169.0	1397517.0	741196.0	0.292935	0.634187
     29574.34	0.12051	1778189.0	1327029.0	704010.0	0.292653	0.633905
     29574.84	0.12415	1832156.0	1367438.0	724784.0	0.292554	0.634821
     29575.35	0.12059	1776951.0	1326401.0	703349.0	0.292430	0.634371
     29575.85	0.11572	1706917.0	1274174.0	675780.0	0.292391	0.634186
     29576.35	0.11090	1634929.0	1220514.0	647128.0	0.292327	0.634483
     29576.85	0.11298	1663963.0	1242162.0	658918.0	0.292349	0.634010
     29577.36	0.11499	1694355.0	1265132.0	671156.0	0.292126	0.633930
     29577.86	0.11340	1670986.0	1247647.0	662018.0	0.292154	0.633722
     29578.36	0.12562	1851341.0	1382325.0	733276.0	0.292143	0.634000
     29578.87	0.11862	1748597.0	1305343.0	692794.0	0.292348	0.633488
     29579.37	0.12480	1837267.0	1372192.0	728121.0	0.291870	0.633697
     29579.87	0.13366	1968678.0	1470092.0	779881.0	0.292037	0.633939
     29580.38	0.12745	1873651.0	1399549.0	742635.0	0.291739	0.633701
     29580.88	0.10929	1610598.0	1203111.0	638445.0	0.291695	0.633630
     29581.38	0.13023	1915898.0	1431030.0	759739.0	0.291792	0.633175
     29581.89	0.13873	2042101.0	1525431.0	809656.0	0.291702	0.633423
     29582.39	0.12445	1829451.0	1365914.0	725284.0	0.292192	0.633016
     29582.89	0.13007	1914602.0	1430586.0	759493.0	0.291426	0.633188
     29583.40	0.14275	2100725.0	1569480.0	833065.0	0.291538	0.633388
     29583.90	0.13355	1960862.0	1465311.0	777770.0	0.291317	0.633392
     29584.40	0.11173	1643035.0	1227688.0	651570.0	0.291412	0.633503
     29584.91	0.11691	1723167.0	1287225.0	683741.0	0.291675	0.632665
     29585.41	0.12779	1877625.0	1403071.0	744845.0	0.291344	0.633243
     29585.91	0.13982	2056403.0	1536618.0	815910.0	0.291374	0.633035
     29586.42	0.13052	1919825.0	1434557.0	761722.0	0.291378	0.633030
     29586.92	0.13386	1971673.0	1473424.0	782457.0	0.291293	0.632905
     29587.42	0.14359	2115653.0	1580957.0	839538.0	0.291333	0.632934
     29587.93	0.14934	2197189.0	1642372.0	872570.0	0.291037	0.632454
     29588.43	0.12526	1844464.0	1378595.0	732214.0	0.291124	0.632747
     29588.93	0.12074	1775102.0	1326734.0	704883.0	0.291138	0.632444
     29589.44	0.12842	1890802.0	1413303.0	750923.0	0.291072	0.632382
     29589.94	0.13300	1958216.0	1463908.0	777627.0	0.290924	0.632618
     29590.45	0.13265	1950111.0	1457838.0	775071.0	0.290932	0.631755
     29590.95	0.14413	2119981.0	1585146.0	842463.0	0.290731	0.632102
     29591.45	0.10661	1567289.0	1172057.0	622838.0	0.290587	0.632229
     29591.96	0.13258	1946407.0	1455400.0	773304.0	0.290704	0.632364
     29592.46	0.11240	1651887.0	1235711.0	656930.0	0.290272	0.631824
     29592.96	0.12644	1856482.0	1388170.0	738111.0	0.290697	0.631647
     29593.47	0.12543	1844321.0	1379112.0	733555.0	0.290671	0.631293
     29593.97	0.13068	1915830.0	1432674.0	761914.0	0.290608	0.631464
     29594.48	0.12248	1798029.0	1345208.0	715671.0	0.290142	0.631083
     29594.98	0.13209	1941223.0	1451955.0	772287.0	0.290407	0.631310
     29595.48	0.13065	1922263.0	1437624.0	764824.0	0.290511	0.631101
     29595.99	0.11271	1655547.0	1238157.0	658678.0	0.290507	0.631144
     29596.49	0.11686	1716890.0	1284448.0	683581.0	0.290185	0.630739
     29596.99	0.12584	1841414.0	1377505.0	733285.0	0.290260	0.630495
     29597.50	0.12139	1772958.0	1326594.0	706335.0	0.290035	0.630280
     29598.00	0.12751	1867913.0	1397685.0	744234.0	0.290004	0.630217
     29598.51	0.11828	1731250.0	1295362.0	689721.0	0.290053	0.630258
     29599.01	0.13056	1918710.0	1435919.0	764583.0	0.289848	0.630230
     29599.51	0.12601	1845037.0	1380497.0	735610.0	0.290056	0.629499
     29600.02	0.12295	1805458.0	1351391.0	719764.0	0.289680	0.629966
     29600.52	0.12041	1767374.0	1322838.0	704822.0	0.289715	0.629589
     29601.03	0.12903	1897069.0	1419969.0	756746.0	0.289675	0.629363
     29601.53	0.12921	1894591.0	1417784.0	755313.0	0.289908	0.629718
     29602.03	0.12742	1870936.0	1400355.0	746281.0	0.289713	0.629379
     29602.54	0.13053	1914684.0	1433248.0	763880.0	0.289609	0.629288
     29603.04	0.13016	1905067.0	1425800.0	760378.0	0.289784	0.628673
     29603.55	0.12556	1832071.0	1371377.0	731486.0	0.289632	0.628493
     29604.05	0.12554	1840849.0	1377515.0	734924.0	0.289946	0.628269
     29604.55	0.11320	1650039.0	1235166.0	659083.0	0.289594	0.628111
     29605.06	0.12580	1838639.0	1376772.0	734328.0	0.289284	0.628541
     29605.56	0.13075	1916072.0	1434516.0	765684.0	0.289450	0.627813
     29606.07	0.12715	1857837.0	1391075.0	742895.0	0.289336	0.627277
     29606.57	0.12010	1751330.0	1311457.0	700008.0	0.289237	0.627802
     29607.07	0.12892	1882364.0	1409611.0	752654.0	0.289215	0.627463
     29607.58	0.13453	1963837.0	1470643.0	785295.0	0.289200	0.627396
     29608.08	0.14024	2043574.0	1530206.0	817520.0	0.289298	0.626882
     29608.59	0.11786	1720571.0	1288475.0	688497.0	0.289197	0.626704
     29609.09	0.14375	2097192.0	1570607.0	839605.0	0.289137	0.626286
     29609.60	0.12432	1803212.0	1350342.0	721745.0	0.289212	0.626441
     29610.10	0.13264	1941701.0	1454127.0	777621.0	0.289159	0.625922
     29610.60	0.12591	1827843.0	1369058.0	731704.0	0.289014	0.626502
     29611.11	0.12948	1878792.0	1406935.0	752530.0	0.289215	0.625728
     29611.61	0.11927	1742286.0	1305058.0	698063.0	0.288951	0.625693
     29612.12	0.12042	1734124.0	1299156.0	695019.0	0.288788	0.625531
     29612.62	0.12582	1822426.0	1365350.0	730580.0	0.288758	0.625327
     29613.13	0.12604	1837080.0	1376105.0	736946.0	0.288920	0.624498
     29613.63	0.11638	1693532.0	1268163.0	679035.0	0.289247	0.624652
     29614.13	0.12890	1880111.0	1408454.0	754227.0	0.288838	0.624555
     29614.64	0.11031	1602969.0	1200904.0	643243.0	0.288783	0.624307
     29615.14	0.12730	1845900.0	1383181.0	740957.0	0.288581	0.624199
     29615.65	0.11938	1741202.0	1304058.0	698906.0	0.289095	0.623720
     29616.15	0.10098	1474673.0	1104734.0	592123.0	0.288832	0.623645
     29616.66	0.12064	1759663.0	1318308.0	706782.0	0.288773	0.623382
     29617.16	0.11074	1614917.0	1210094.0	648773.0	0.288586	0.623370
     29617.67	0.12229	1777906.0	1332354.0	714613.0	0.288489	0.622961
     29618.17	0.11195	1631282.0	1222074.0	655514.0	0.288817	0.622885
     29618.68	0.12110	1759745.0	1318575.0	707314.0	0.288617	0.622832
     29619.18	0.12701	1857624.0	1391764.0	746974.0	0.288726	0.622297
     29619.68	0.11391	1660953.0	1244637.0	668215.0	0.288548	0.621989
     29620.19	0.12482	1817314.0	1361896.0	731187.0	0.288482	0.621964
     29620.69	0.11853	1731561.0	1297389.0	696688.0	0.288670	0.621771
     29621.20	0.12960	1893879.0	1419322.0	762471.0	0.288448	0.621370
     29621.70	0.13069	1905192.0	1427647.0	766834.0	0.288555	0.621513
     29622.21	0.13058	1907099.0	1429354.0	768016.0	0.288361	0.621167
     29622.71	0.13095	1911188.0	1432488.0	769806.0	0.288312	0.621030
     29623.22	0.13978	2040415.0	1529570.0	822082.0	0.288167	0.620902
     29623.72	0.12273	1788155.0	1340376.0	720501.0	0.288234	0.620759
     29624.23	0.12566	1831220.0	1372408.0	738100.0	0.288416	0.620243
     29624.73	0.12609	1838075.0	1377878.0	741134.0	0.288174	0.620118
     29625.24	0.12067	1759384.0	1319209.0	710004.0	0.287931	0.619517
     29625.74	0.13495	1971653.0	1477892.0	795380.0	0.288256	0.619552
     29626.25	0.13669	1994702.0	1495137.0	804563.0	0.288277	0.619674
     29626.75	0.12761	1861606.0	1395636.0	751168.0	0.288089	0.619476
     29627.26	0.13896	2024841.0	1518333.0	817351.0	0.287878	0.619300
     29627.76	0.12742	1852282.0	1388931.0	747921.0	0.287884	0.618992
     29628.27	0.13666	1986783.0	1489504.0	802687.0	0.288074	0.618234
     29628.77	0.13269	1934044.0	1450461.0	781767.0	0.287732	0.618080
     29629.28	0.12585	1824719.0	1368057.0	736854.0	0.288035	0.618757
     29629.78	0.13915	2029375.0	1522013.0	820382.0	0.287694	0.618019
     29630.28	0.12357	1804827.0	1353324.0	729905.0	0.287901	0.617405
     29630.79	0.12637	1841620.0	1381377.0	744858.0	0.287565	0.617643
     29631.29	0.13514	1971334.0	1478199.0	797291.0	0.287886	0.617360
     29631.80	0.12914	1886690.0	1415073.0	763423.0	0.287643	0.617124
     29632.31	0.12325	1798363.0	1348935.0	727876.0	0.287561	0.616940
     29632.81	0.12214	1779571.0	1334796.0	720211.0	0.287594	0.616990
     29633.32	0.11854	1731254.0	1298551.0	701108.0	0.287597	0.616342
     29633.82	0.13550	1979606.0	1484704.0	801224.0	0.287682	0.616830
     29634.33	0.13286	1925816.0	1444651.0	780599.0	0.287482	0.615561
     29634.83	0.11974	1743584.0	1307550.0	706309.0	0.287788	0.615858
     29635.34	0.12413	1809357.0	1357624.0	733499.0	0.287235	0.615665
     29635.84	0.12751	1835882.0	1377324.0	744062.0	0.287383	0.615773
     29636.35	0.12564	1812154.0	1359293.0	734653.0	0.287551	0.615322
     29636.85	0.12151	1757470.0	1318424.0	712974.0	0.287438	0.614747
     29637.36	0.12466	1794284.0	1346094.0	727722.0	0.287399	0.615043
     29637.86	0.11409	1656959.0	1243770.0	672233.0	0.286837	0.615297
     29638.37	0.12895	1868917.0	1401947.0	758244.0	0.287497	0.614612
     29638.87	0.11960	1737755.0	1304016.0	705483.0	0.287145	0.614321
     29639.38	0.11680	1689320.0	1267802.0	685763.0	0.287041	0.614508
     29639.88	0.12634	1829855.0	1373350.0	743013.0	0.286984	0.614295
     29640.39	0.11865	1718923.0	1290147.0	698024.0	0.286942	0.614258
     29640.89	0.12143	1760619.0	1321071.0	715441.0	0.287223	0.613299
     29641.40	0.12949	1865451.0	1399897.0	757796.0	0.287104	0.613740
     29641.90	0.12664	1844792.0	1384670.0	749692.0	0.286905	0.613555
     29642.41	0.13750	1995405.0	1497570.0	810933.0	0.287003	0.613414
     29642.91	0.11816	1716996.0	1288969.0	698140.0	0.286734	0.613178
     29643.42	0.13568	1956098.0	1467903.0	795190.0	0.287117	0.613009
     29643.93	0.13240	1920487.0	1441813.0	781099.0	0.286677	0.612955
     29644.43	0.12296	1783488.0	1339038.0	725300.0	0.286620	0.613121
     29644.94	0.11993	1739654.0	1306260.0	707709.0	0.286518	0.612890
     29645.44	0.12170	1770062.0	1328911.0	720122.0	0.286655	0.612694
     29645.95	0.12825	1855725.0	1392970.0	755052.0	0.286837	0.612407
     29646.45	0.12367	1792105.0	1345607.0	729440.0	0.286546	0.612323
     29646.96	0.12396	1797516.0	1349987.0	731963.0	0.286311	0.612120
     29647.46	0.12346	1789987.0	1344114.0	728838.0	0.286473	0.612039
     29647.97	0.13196	1903737.0	1429505.0	775335.0	0.286491	0.611788
     29648.48	0.14047	2039240.0	1531951.0	831041.0	0.286035	0.611618
     29648.98	0.11706	1697036.0	1274148.0	691276.0	0.286605	0.611494
     29649.49	0.12638	1822838.0	1368981.0	742534.0	0.286328	0.611753
     29649.99	0.12765	1846429.0	1386897.0	752652.0	0.286185	0.611221
     29650.50	0.13041	1887487.0	1417993.0	769473.0	0.286004	0.611292
     29651.00	0.12234	1763963.0	1325131.0	719098.0	0.286052	0.611269
     29651.51	0.13915	2022715.0	1519543.0	824678.0	0.286031	0.611172
     29652.02	0.12616	1827035.0	1372479.0	744972.0	0.286076	0.611027
     29652.52	0.14568	2116272.0	1589769.0	862781.0	0.286067	0.611183
     29653.03	0.12929	1873006.0	1407223.0	764266.0	0.285926	0.610458
     29653.53	0.10467	1515043.0	1138326.0	618123.0	0.285885	0.610627
     29654.04	0.12595	1821128.0	1368423.0	742916.0	0.285797	0.610831
     29654.54	0.11401	1652687.0	1241608.0	674205.0	0.285995	0.610628
     29655.05	0.12519	1818524.0	1366275.0	741503.0	0.285937	0.611164
     29655.56	0.12910	1873245.0	1407716.0	764263.0	0.285704	0.610812
     29656.06	0.13818	2006248.0	1507492.0	819066.0	0.285819	0.610038
     29656.57	0.13153	1906205.0	1432293.0	778092.0	0.285838	0.610187
     29657.07	0.13354	1940490.0	1458299.0	791797.0	0.285670	0.610721
     29657.58	0.086004	1251767.0	940765.0	511097.0	0.285618	0.610134
     29658.09	0.10562	1535808.0	1154199.0	627115.0	0.285650	0.610032
     29658.59	0.11061	1605798.0	1207032.0	655605.0	0.285456	0.610361
     29659.10	0.10800	1571576.0	1181258.0	641705.0	0.285499	0.610207
     29659.60	0.12647	1836284.0	1380587.0	750572.0	0.285235	0.609428
     29660.11	0.13275	1927555.0	1448775.0	787648.0	0.285534	0.609422
     29660.62	0.11238	1634768.0	1228836.0	667909.0	0.285434	0.609671
     29661.12	0.12414	1803150.0	1355695.0	737169.0	0.285221	0.609252
     29661.63	0.11347	1645873.0	1237346.0	672478.0	0.285302	0.609755
     29662.13	0.12878	1862426.0	1400047.0	760945.0	0.285374	0.609700
     29662.64	0.12146	1759106.0	1322422.0	719108.0	0.285341	0.609209
     29663.15	0.13786	1999153.0	1503479.0	817561.0	0.284942	0.609212
     29663.65	0.13270	1924190.0	1446906.0	786870.0	0.285078	0.609120
     29664.16	0.13983	2028321.0	1525030.0	829707.0	0.285194	0.608697
     29664.66	0.13927	2004208.0	1507322.0	820053.0	0.284914	0.608721
     29665.17	0.13575	1959980.0	1474170.0	801630.0	0.284839	0.609203
     29665.68	0.11251	1628865.0	1224816.0	666173.0	0.285093	0.608997
     29666.18	0.12258	1774125.0	1334222.0	725998.0	0.284959	0.608556
     29666.69	0.12926	1873595.0	1408925.0	766513.0	0.285032	0.608731
     29667.19	0.13009	1887107.0	1419204.0	772488.0	0.284949	0.608235
     29667.70	0.13321	1912635.0	1437976.0	782627.0	0.285245	0.608336
     29668.21	0.13947	1984437.0	1493353.0	812605.0	0.284311	0.608534
     29668.71	0.15398	2186375.0	1644888.0	895356.0	0.284573	0.608206
     29669.22	0.14589	2068366.0	1556142.0	847186.0	0.284549	0.608045
     29669.73	0.093431	1327779.0	999105.0	543790.0	0.284403	0.608297
     29670.23	0.12025	1697973.0	1277468.0	695739.0	0.284555	0.607661
     29670.74	0.13692	1950002.0	1467115.0	798714.0	0.284533	0.608050
     29671.25	0.13235	1893654.0	1425161.0	776307.0	0.284224	0.607492
     29671.75	0.13147	1887918.0	1420845.0	774115.0	0.284223	0.607287
     29672.26	0.12813	1837238.0	1382677.0	752759.0	0.284242	0.608032
     29672.76	0.13079	1880107.0	1415021.0	770892.0	0.284184	0.607351
     29673.27	0.13327	1913834.0	1440548.0	784757.0	0.284085	0.607405
     29673.78	0.11433	1648292.0	1240506.0	675860.0	0.284220	0.607289
     29674.28	0.13027	1880898.0	1415632.0	771130.0	0.284173	0.607474
     29674.79	0.12019	1722193.0	1296435.0	706297.0	0.283980	0.607338
     29675.30	0.13101	1872640.0	1409816.0	768464.0	0.283890	0.606821
     29675.80	0.12003	1730333.0	1302501.0	710003.0	0.284028	0.606772
     29676.31	0.12558	1809600.0	1362458.0	742915.0	0.283815	0.606464
     29676.82	0.12258	1771300.0	1333660.0	727044.0	0.283787	0.606695
     29677.32	0.12664	1825685.0	1374791.0	749264.0	0.283654	0.606966
     29677.83	0.12353	1769847.0	1332659.0	726763.0	0.283717	0.606331
     29678.34	0.12194	1745386.0	1313825.0	716598.0	0.284033	0.606183
     29678.84	0.11601	1670838.0	1257986.0	686173.0	0.283813	0.606138
     29679.35	0.11943	1719628.0	1294819.0	706186.0	0.283737	0.606248
     29679.86	0.13083	1881947.0	1417424.0	773003.0	0.283466	0.606313
     29680.36	0.11717	1683515.0	1267585.0	691612.0	0.283770	0.605844
     29680.87	0.11781	1689172.0	1271955.0	693843.0	0.283683	0.606065
     29681.38	0.12111	1738006.0	1309355.0	714519.0	0.283204	0.605680
     29681.88	0.13409	1930491.0	1454081.0	793434.0	0.283400	0.605759
     29682.39	0.12081	1742356.0	1312550.0	716389.0	0.283266	0.605504
     29682.90	0.13158	1893014.0	1426092.0	778384.0	0.283232	0.605473
     29683.40	0.12942	1847015.0	1391454.0	759403.0	0.283222	0.605572
     29683.91	0.12867	1825656.0	1375592.0	750780.0	0.283055	0.605527
     29684.42	0.11905	1713048.0	1289998.0	704773.0	0.283634	0.604520
     29684.92	0.14564	2089947.0	1574240.0	859458.0	0.283366	0.605226
     29685.43	0.10732	1543904.0	1163255.0	635244.0	0.283092	0.604968
     29685.94	0.13279	1919635.0	1446481.0	789611.0	0.283001	0.605349
     29686.44	0.11440	1653457.0	1245705.0	680629.0	0.283167	0.604440
     29686.95	0.13433	1934894.0	1457554.0	796062.0	0.283293	0.604838
     29687.46	0.12464	1793628.0	1351360.0	738040.0	0.283129	0.604869
     29687.97	0.12261	1765250.0	1330309.0	726388.0	0.282881	0.605082
     29688.47	0.13300	1907296.0	1437334.0	785520.0	0.282897	0.604199
     29688.98	0.11862	1709006.0	1287613.0	703611.0	0.283122	0.604320
     29689.49	0.13384	1937475.0	1459825.0	797753.0	0.283069	0.604273
     29689.99	0.12620	1818932.0	1370678.0	749521.0	0.282944	0.603626
     29690.50	0.12603	1823580.0	1373963.0	751043.0	0.283102	0.603992
     29691.01	0.13757	1983827.0	1495116.0	817399.0	0.282824	0.603832
     29691.51	0.12503	1792950.0	1351052.0	738957.0	0.282979	0.603399
     29692.02	0.12744	1831666.0	1380796.0	755084.0	0.282566	0.603586
     29692.53	0.13892	1999003.0	1506580.0	824383.0	0.282806	0.602962
     29693.04	0.11485	1640998.0	1237059.0	676771.0	0.282568	0.603159
     29693.54	0.12354	1776588.0	1339644.0	733073.0	0.282291	0.602914
     29694.05	0.12449	1787812.0	1347549.0	737157.0	0.282705	0.603242
     29694.56	0.12472	1796091.0	1354145.0	741022.0	0.282442	0.602895
     29695.06	0.11895	1707317.0	1287223.0	704752.0	0.282436	0.602396
     29695.57	0.12639	1815906.0	1368974.0	749294.0	0.282523	0.602685
     29696.08	0.12416	1786568.0	1346754.0	737226.0	0.282599	0.602558
     29696.59	0.12086	1726611.0	1301727.0	712507.0	0.282469	0.602657
     29697.09	0.11625	1664315.0	1254852.0	687263.0	0.282396	0.602056
     29697.60	0.10452	1504621.0	1134442.0	621202.0	0.282400	0.602240
     29698.11	0.12230	1745883.0	1316792.0	721130.0	0.282062	0.602134
     29698.62	0.11986	1726175.0	1301254.0	712725.0	0.282580	0.601988
     29699.12	0.11653	1674344.0	1262395.0	691682.0	0.282411	0.601640
     29699.63	0.11072	1593555.0	1201725.0	658424.0	0.282209	0.601664
     29700.14	0.11948	1708864.0	1288565.0	706150.0	0.282300	0.601457
     29700.65	0.11710	1691359.0	1275382.0	699219.0	0.282287	0.601037
     29701.15	0.11825	1697372.0	1279777.0	701488.0	0.282395	0.601237
     29701.66	0.12487	1787969.0	1348291.0	739173.0	0.282242	0.601061
     29702.17	0.12094	1738685.0	1310990.0	718863.0	0.282347	0.600867
     29702.67	0.14114	2022582.0	1525365.0	836832.0	0.282141	0.600366
     29703.18	0.12988	1859242.0	1402364.0	769123.0	0.282009	0.600664
     29703.69	0.12900	1841801.0	1389441.0	761990.0	0.281842	0.600723
     29704.20	0.13294	1909850.0	1440435.0	790324.0	0.282080	0.600257
     29704.70	0.12752	1833004.0	1382626.0	758844.0	0.281972	0.599944
     29705.21	0.12760	1833446.0	1383220.0	759113.0	0.281783	0.600019
     29705.72	0.12507	1801291.0	1358806.0	746005.0	0.281897	0.599629
     29706.23	0.13808	1985505.0	1497882.0	822099.0	0.281821	0.599947
     29706.74	0.12041	1729847.0	1304790.0	716543.0	0.281991	0.599359
     29707.24	0.13781	1985513.0	1498188.0	822730.0	0.281621	0.599384
     29707.75	0.12831	1852715.0	1397664.0	767530.0	0.281850	0.599380
     29708.26	0.12973	1859593.0	1402964.0	770540.0	0.281771	0.599251
     29708.77	0.12565	1803087.0	1359932.0	746926.0	0.282065	0.599224
     29709.27	0.13704	1973214.0	1488741.0	817860.0	0.281733	0.598995
     29709.78	0.13839	1982061.0	1495329.0	821559.0	0.281791	0.598898
     29710.29	0.12912	1858513.0	1402335.0	770561.0	0.281638	0.598775
     29710.80	0.14096	2022922.0	1526218.0	838981.0	0.281750	0.598360
     29711.30	0.13631	1960520.0	1479296.0	813187.0	0.281643	0.598360
     29711.81	0.12734	1828397.0	1379520.0	758611.0	0.281704	0.598002
     29712.32	0.12858	1843589.0	1391093.0	764701.0	0.281624	0.598360
     29712.83	0.13044	1867650.0	1409304.0	775031.0	0.281585	0.597948
     29713.34	0.12344	1770100.0	1335916.0	734881.0	0.281419	0.597664
     29713.84	0.11906	1706453.0	1287732.0	708564.0	0.281534	0.597397
     29714.35	0.13272	1902524.0	1435927.0	790011.0	0.281371	0.597519
     29714.86	0.12590	1809801.0	1365744.0	751496.0	0.281518	0.597389
     29715.37	0.12269	1762610.0	1330497.0	732094.0	0.281243	0.597399
     29715.88	0.12136	1748524.0	1319308.0	726408.0	0.281665	0.596751
     29716.38	0.12863	1852479.0	1398282.0	769579.0	0.281280	0.597156
     29716.89	0.12253	1746449.0	1318424.0	725825.0	0.281147	0.596883
     29717.40	0.12652	1812271.0	1367925.0	753050.0	0.281286	0.596919
     29717.91	0.11765	1685300.0	1272186.0	700739.0	0.281207	0.596356
     29718.41	0.12120	1740970.0	1313728.0	723639.0	0.281574	0.596332
     29718.92	0.12592	1812169.0	1368026.0	753633.0	0.281156	0.596219
     29719.43	0.12335	1776709.0	1341158.0	739064.0	0.281229	0.595904
     29719.94	0.11816	1689582.0	1275528.0	702983.0	0.281121	0.595783
     29720.45	0.12314	1765942.0	1333465.0	734786.0	0.280903	0.595957
     29720.96	0.12024	1717139.0	1296602.0	714659.0	0.280913	0.595697
     29721.46	0.12255	1755725.0	1325340.0	730654.0	0.281213	0.595484
     29721.97	0.12178	1751768.0	1322370.0	729491.0	0.281200	0.594834
     29722.48	0.13195	1888160.0	1425601.0	786338.0	0.281009	0.594962
     29722.99	0.13680	1957430.0	1478245.0	815409.0	0.280777	0.594921
     29723.50	0.13714	1970934.0	1488193.0	821241.0	0.280945	0.594501
     29724.00	0.12893	1845972.0	1393477.0	769004.0	0.281204	0.594461
     29724.51	0.13223	1892901.0	1429160.0	788841.0	0.281024	0.594277
     29725.02	0.11638	1667796.0	1259437.0	695178.0	0.280838	0.594252
     29725.53	0.12157	1740647.0	1314615.0	725541.0	0.280713	0.594382
     29726.04	0.12434	1770786.0	1337282.0	738456.0	0.280784	0.593833
     29726.55	0.12315	1756708.0	1326666.0	732254.0	0.280773	0.594297
     29727.05	0.12598	1793599.0	1354442.0	748262.0	0.280835	0.593392
     29727.56	0.12596	1783160.0	1346819.0	743818.0	0.280642	0.593704
     29728.07	0.12332	1764172.0	1332708.0	736064.0	0.280468	0.593651
     29728.58	0.13465	1925372.0	1454193.0	803311.0	0.280668	0.593464
     29729.09	0.12071	1729630.0	1306654.0	721730.0	0.280438	0.593574
     29729.60	0.12269	1761779.0	1330627.0	735391.0	0.280674	0.593003
     29730.10	0.12390	1768057.0	1335790.0	738186.0	0.280358	0.593082
     29730.61	0.13649	1949207.0	1472614.0	814071.0	0.280384	0.592747
     29731.12	0.12861	1832094.0	1384299.0	765058.0	0.280266	0.592998
     29731.63	0.12680	1801899.0	1361518.0	752859.0	0.280241	0.592478
     29732.14	0.14547	2077897.0	1569920.0	868142.0	0.280332	0.592425
     29732.65	0.17302	2477771.0	1872442.0	1035492.0	0.280116	0.592367
     29733.15	0.15927	2269549.0	1715043.0	949192.0	0.280143	0.591582
     29733.66	0.060109	862830.0	651831.0	360688.0	0.280432	0.591772
     29734.17	0.092813	1323592.0	1000384.0	553359.0	0.279965	0.592132
     29734.68	0.13068	1869656.0	1412886.0	781958.0	0.280120	0.591589
     29735.19	0.12536	1783437.0	1347707.0	745939.0	0.280138	0.591516
     29735.70	0.11562	1650480.0	1247060.0	690479.0	0.280277	0.591159
     29736.21	0.14239	2030573.0	1534371.0	849785.0	0.280197	0.590892
     29736.71	0.15205	2168476.0	1638910.0	907445.0	0.279993	0.591154
     29737.22	0.15656	2239382.0	1692991.0	937470.0	0.279703	0.591067
     29737.73	0.062889	898524.0	679233.0	376265.0	0.279789	0.590671
     29738.24	0.085936	1225985.0	926568.0	513440.0	0.280012	0.590354
     29738.75	0.11085	1586657.0	1199171.0	664504.0	0.279999	0.590345
     29739.26	0.11846	1693425.0	1280162.0	709376.0	0.279766	0.590356
     29739.77	0.11697	1665108.0	1258938.0	697654.0	0.279621	0.590301
     29740.28	0.15661	2220916.0	1678972.0	930576.0	0.279738	0.590133
     29740.78	0.13257	1900277.0	1436896.0	796533.0	0.279514	0.589972
     29741.29	0.11979	1708825.0	1292489.0	716724.0	0.279236	0.589634
     29741.80	0.071371	1012401.0	765544.0	424621.0	0.279493	0.589390
     29742.31	0.12819	1828820.0	1382903.0	767032.0	0.279486	0.589412
     29742.82	0.11570	1655039.0	1251476.0	694278.0	0.279501	0.589206
     29743.33	0.13149	1871991.0	1415412.0	785013.0	0.279582	0.589476
     29743.84	0.15612	2226737.0	1684410.0	934690.0	0.279122	0.588956
     29744.35	0.11666	1670644.0	1263497.0	701106.0	0.279326	0.588979
     29744.86	0.14029	2002899.0	1514920.0	841052.0	0.279233	0.588464
     29745.36	0.11449	1637755.0	1239059.0	687628.0	0.278974	0.588860
     29745.87	0.13328	1897703.0	1435723.0	797167.0	0.278976	0.588360
     29746.38	0.12092	1717247.0	1299441.0	721555.0	0.278788	0.588281
     29746.89	0.12717	1804879.0	1365624.0	758465.0	0.278882	0.588070
     29747.40	0.12527	1786998.0	1351906.0	750958.0	0.279022	0.587921
     29747.91	0.14958	2135878.0	1615772.0	897394.0	0.279065	0.588073
     29748.42	0.16487	2351400.0	1778967.0	987851.0	0.278978	0.588256
     29748.93	0.17141	2452142.0	1855036.0	1030734.0	0.279058	0.587633
     29749.44	0.068354	975502.0	738027.0	410055.0	0.278972	0.587689
     29749.95	0.10695	1525903.0	1154279.0	641179.0	0.279110	0.587923
     29750.45	0.13767	1963209.0	1485745.0	825657.0	0.278664	0.587492
     29750.96	0.13203	1879805.0	1422887.0	790749.0	0.278480	0.587463
     29751.47	0.12483	1778647.0	1345918.0	748215.0	0.278777	0.587141
     29751.98	0.14184	2022168.0	1530516.0	850902.0	0.278565	0.587063
     29752.49	0.15496	2215240.0	1676445.0	932182.0	0.278685	0.586903
     29753.00	0.13496	1919220.0	1452554.0	807531.0	0.278595	0.587097
     29753.51	0.094070	1342814.0	1016204.0	565168.0	0.278693	0.586706
     29754.02	0.11994	1709407.0	1293988.0	720029.0	0.278418	0.586193
     29754.53	0.12573	1798201.0	1361227.0	757358.0	0.278400	0.586306
     29755.04	0.12318	1752325.0	1326345.0	737673.0	0.278516	0.586682
     29755.55	0.13340	1896146.0	1435711.0	798656.0	0.278163	0.586485
     29756.06	0.12062	1713907.0	1297647.0	721922.0	0.278223	0.586391
     29756.57	0.14346	2040650.0	1544950.0	859936.0	0.278277	0.585889
     29757.07	0.12861	1814989.0	1374425.0	764802.0	0.278044	0.586174
     29757.58	0.10518	1498706.0	1134797.0	631911.0	0.278148	0.585460
     29758.09	0.12055	1715151.0	1298764.0	723181.0	0.278088	0.585509
     29758.60	0.13253	1888891.0	1430206.0	796680.0	0.278171	0.585121
     29759.11	0.10860	1543190.0	1168386.0	650419.0	0.278228	0.585762
     29759.62	0.13341	1899639.0	1438540.0	800943.0	0.278035	0.585594
     29760.13	0.11862	1684011.0	1275144.0	710266.0	0.278119	0.585175
     29760.64	0.12131	1731311.0	1311357.0	730472.0	0.277816	0.585127
     29761.15	0.11533	1638247.0	1240844.0	691195.0	0.277835	0.585125
     29761.66	0.11317	1607901.0	1218147.0	678586.0	0.277599	0.585075
     29762.17	0.13397	1908357.0	1445782.0	805639.0	0.277592	0.584770
     29762.68	0.12258	1750363.0	1325801.0	738888.0	0.277806	0.584626
     29763.19	0.13013	1857501.0	1407133.0	784306.0	0.277678	0.584510
     29763.70	0.13199	1873699.0	1419501.0	790992.0	0.277609	0.584773
     29764.21	0.12951	1843569.0	1396733.0	778542.0	0.277567	0.584468
     29764.72	0.13558	1920420.0	1455461.0	811337.0	0.277221	0.584394
     29765.23	0.11512	1632395.0	1236919.0	689481.0	0.277425	0.584440
     29765.74	0.11930	1696786.0	1285819.0	717202.0	0.277340	0.583794
     29766.25	0.13277	1889969.0	1431520.0	798385.0	0.277824	0.583901
     29766.76	0.11971	1694892.0	1284422.0	716254.0	0.277310	0.584029
     29767.26	0.13087	1860832.0	1409846.0	786152.0	0.277543	0.584086
     29767.77	0.12312	1749192.0	1325325.0	739082.0	0.277496	0.584004
     29768.28	0.12469	1760678.0	1334481.0	744475.0	0.277157	0.583618
     29768.79	0.13120	1862094.0	1411295.0	787224.0	0.277194	0.583750
     29769.30	0.12381	1759919.0	1334050.0	744004.0	0.277048	0.583928
     29769.81	0.12760	1814912.0	1375578.0	767515.0	0.277163	0.583471
     29770.32	0.13732	1955844.0	1482150.0	827269.0	0.277328	0.583119
     29770.83	0.12474	1774068.0	1344621.0	750309.0	0.277163	0.583382
     29771.34	0.13287	1892083.0	1434052.0	800250.0	0.277174	0.583335
     29771.85	0.12557	1783853.0	1351926.0	754371.0	0.277245	0.583401
     29772.36	0.13022	1847217.0	1399964.0	781560.0	0.277234	0.582910
     29772.87	0.12901	1830561.0	1388013.0	774938.0	0.276749	0.582845
     29773.38	0.12049	1713704.0	1299139.0	725136.0	0.276955	0.583098
     29773.89	0.12964	1837365.0	1393630.0	777923.0	0.276421	0.583040
     29774.40	0.12339	1756005.0	1331595.0	743176.0	0.276664	0.583200
     29774.91	0.11760	1670696.0	1266662.0	707627.0	0.276855	0.582223
     29775.42	0.13066	1855381.0	1406882.0	785552.0	0.276714	0.582745
     29775.93	0.12952	1842581.0	1397374.0	780556.0	0.276573	0.582344
     29776.44	0.11358	1604652.0	1216685.0	679593.0	0.276777	0.582391
     29776.95	0.11312	1605781.0	1217389.0	679889.0	0.276902	0.582534
     29777.46	0.12780	1807353.0	1370616.0	765693.0	0.276603	0.582234
     29777.97	0.11216	1587767.0	1203907.0	672696.0	0.276757	0.582034
     29778.48	0.11073	1573867.0	1193648.0	666916.0	0.276521	0.582105
     29778.99	0.11669	1656700.0	1256712.0	702391.0	0.276329	0.581764
     29779.50	0.11417	1619260.0	1228189.0	686098.0	0.276429	0.582276
     29780.01	0.12595	1782384.0	1352365.0	755554.0	0.276097	0.582159
     29780.52	0.12666	1798935.0	1364716.0	762630.0	0.276248	0.581929
     29781.03	0.10375	1474913.0	1118886.0	625575.0	0.276265	0.581418
     29781.54	0.12217	1719923.0	1304777.0	729568.0	0.276247	0.581335
     29782.05	0.11508	1624464.0	1232233.0	688972.0	0.276350	0.581383
     29782.56	0.14135	2000591.0	1517540.0	848784.0	0.276352	0.581041
     29783.07	0.12572	1783682.0	1353563.0	756950.0	0.275939	0.581198
     29783.58	0.14132	2005808.0	1521755.0	851192.0	0.276183	0.580982
     29784.09	0.13114	1863611.0	1413982.0	790626.0	0.276106	0.581340
     29784.60	0.12398	1759547.0	1335193.0	746830.0	0.275981	0.580994
     29785.12	0.12374	1760495.0	1335626.0	747163.0	0.276195	0.580872
     29785.63	0.12393	1759983.0	1335379.0	747125.0	0.276089	0.580738
     29786.14	0.13472	1912282.0	1450827.0	811957.0	0.276164	0.580442
     29786.65	0.12666	1794096.0	1361532.0	761897.0	0.275891	0.580554
     29787.16	0.12312	1746725.0	1325562.0	741815.0	0.275906	0.580492
     29787.67	0.14472	2057698.0	1561627.0	873985.0	0.275860	0.580420
     29788.18	0.13182	1861064.0	1412551.0	790120.0	0.275751	0.580968
     29788.69	0.12814	1821837.0	1382942.0	774183.0	0.275632	0.580160
     29789.20	0.12852	1814899.0	1377688.0	771173.0	0.275623	0.580249
     29789.71	0.13544	1916736.0	1454805.0	814651.0	0.275752	0.579867
     29790.22	0.13842	1966078.0	1492286.0	835456.0	0.275732	0.580087
     29790.73	0.13704	1931043.0	1465686.0	820839.0	0.275737	0.579752
     29791.24	0.13443	1904986.0	1446076.0	809795.0	0.275621	0.579828
     29791.75	0.12353	1748844.0	1327835.0	743542.0	0.275405	0.579880
     29792.26	0.13179	1861104.0	1412854.0	791478.0	0.275558	0.579465
     29792.77	0.12526	1775417.0	1347926.0	755045.0	0.275468	0.579545
     29793.28	0.12697	1799290.0	1365941.0	765263.0	0.275549	0.579379
     29793.79	0.11696	1652705.0	1255109.0	702863.0	0.275191	0.579816
     29794.30	0.14021	1979521.0	1502911.0	841890.0	0.275451	0.579510
     29794.81	0.12111	1713428.0	1300853.0	728787.0	0.275476	0.579394
     29795.32	0.13622	1926804.0	1463093.0	819856.0	0.275310	0.579179
     29795.84	0.11608	1637578.0	1243595.0	696702.0	0.275212	0.579404
     29796.35	0.12260	1729329.0	1313388.0	736068.0	0.275123	0.579043
     29796.86	0.12433	1756078.0	1333397.0	747511.0	0.275353	0.578736
     29797.37	0.12202	1715346.0	1302341.0	730029.0	0.275451	0.578834
     29797.88	0.12598	1779376.0	1351317.0	757561.0	0.275183	0.578731
     29798.39	0.12077	1708537.0	1297422.0	727507.0	0.275258	0.578511
     29798.90	0.12365	1739997.0	1321396.0	741309.0	0.275195	0.578026
     29799.41	0.12200	1719381.0	1305997.0	732571.0	0.274998	0.578162
     29799.92	0.11961	1689353.0	1283257.0	719843.0	0.274944	0.578124
     29800.43	0.12006	1685174.0	1280063.0	717889.0	0.274960	0.578350
     29800.94	0.12077	1701916.0	1293000.0	725377.0	0.274790	0.578029
     29801.45	0.13166	1850378.0	1405409.0	788720.0	0.275062	0.577672
     29801.97	0.11852	1675114.0	1272581.0	714059.0	0.274834	0.577837
     29802.48	0.11949	1675038.0	1273220.0	714525.0	0.274287	0.577686
     29802.99	0.13882	1960454.0	1489361.0	835787.0	0.274829	0.577729
     29803.50	0.13201	1866387.0	1417688.0	795667.0	0.274977	0.577602
     29804.01	0.12292	1731874.0	1315838.0	738450.0	0.274730	0.577676
     29804.52	0.13740	1942984.0	1476340.0	828516.0	0.274659	0.577685
     29805.03	0.11616	1636662.0	1243338.0	697909.0	0.274859	0.577466
     29805.54	0.12501	1751932.0	1331303.0	747507.0	0.274561	0.577170
     29806.05	0.12597	1758352.0	1336537.0	750528.0	0.274295	0.577060
     29806.56	0.11065	1547497.0	1175831.0	660243.0	0.274664	0.577122
     29807.07	0.14634	2018965.0	1534232.0	861770.0	0.274555	0.576797
     29807.59	0.12289	1691723.0	1285601.0	722204.0	0.274521	0.576674
     29808.10	0.20404	2836766.0	2156092.0	1211032.0	0.274367	0.576824
     29808.61	0.096322	1333051.0	1013098.0	569277.0	0.274457	0.576401
     29809.12	0.082971	1157797.0	880127.0	494608.0	0.274208	0.576301
     29809.63	0.11106	1560448.0	1185959.0	666470.0	0.274421	0.576312
     29810.14	0.12903	1783476.0	1355570.0	762245.0	0.274342	0.575709
     29810.65	0.14658	2048846.0	1557493.0	875565.0	0.274199	0.575963
     29811.16	0.15606	2177121.0	1654961.0	930320.0	0.274226	0.576004
     29811.68	0.090734	1268584.0	964381.0	542067.0	0.274170	0.576097
     29812.19	0.13840	1921815.0	1460474.0	821701.0	0.274509	0.575140
     29812.70	0.11553	1610313.0	1224028.0	688482.0	0.274282	0.575413
     29813.21	0.12876	1799424.0	1367948.0	769602.0	0.274155	0.575194
     29813.72	0.11572	1624901.0	1234950.0	694783.0	0.274416	0.575186
     29814.23	0.12984	1797373.0	1366719.0	768919.0	0.273913	0.575183
     29814.74	0.12629	1777981.0	1351762.0	760415.0	0.274070	0.575300
     29815.25	0.14079	1972721.0	1499781.0	843746.0	0.274095	0.575223
     29815.77	0.12082	1695287.0	1289048.0	725425.0	0.273948	0.574902
     29816.28	0.13221	1867051.0	1419419.0	799159.0	0.274113	0.574443
     29816.79	0.10530	1486439.0	1130671.0	636452.0	0.273572	0.574658
     29817.30	0.10245	1443622.0	1097836.0	618070.0	0.273814	0.574495
     29817.81	0.11617	1630711.0	1240165.0	698339.0	0.273772	0.574295
     29818.32	0.10572	1467762.0	1116207.0	628487.0	0.273802	0.574376
     29818.83	0.13234	1854683.0	1410611.0	794646.0	0.273691	0.573881
     29819.35	0.12878	1817318.0	1381889.0	778215.0	0.273910	0.574204
     29819.86	0.10934	1532791.0	1165749.0	656742.0	0.273726	0.573828
     29820.37	0.14232	1997549.0	1519209.0	856140.0	0.273731	0.573511
     29820.88	0.088378	1240166.0	943176.0	531446.0	0.273748	0.573651
     29821.39	0.12151	1704372.0	1295925.0	730432.0	0.273972	0.573344
     29821.90	0.12556	1760818.0	1339427.0	754471.0	0.273537	0.573980
     29822.42	0.12358	1727688.0	1314163.0	740830.0	0.273584	0.573184
     29822.93	0.13471	1888453.0	1436440.0	809814.0	0.273590	0.573119
     29823.44	0.14788	2080115.0	1582392.0	892114.0	0.273486	0.573099
     29823.95	0.16497	2322149.0	1766964.0	996402.0	0.273230	0.572867
     29824.46	0.10321	1445480.0	1099501.0	620060.0	0.273585	0.572795
     29824.97	0.10038	1410748.0	1073136.0	605091.0	0.273535	0.572962
     29825.49	0.12526	1768618.0	1345745.0	758987.0	0.273251	0.572718
     29826.00	0.13390	1869383.0	1422555.0	802569.0	0.273154	0.572392
     29826.51	0.12562	1763489.0	1341859.0	757190.0	0.273238	0.572197
     29827.02	0.12140	1693649.0	1288989.0	727517.0	0.273027	0.571976
     29827.53	0.15285	2129692.0	1620577.0	914967.0	0.273195	0.571650
     29828.04	0.13448	1887437.0	1436783.0	810947.0	0.272813	0.571959
     29828.56	0.11683	1637604.0	1246453.0	703621.0	0.272932	0.571817
     29829.07	0.13786	1930400.0	1469002.0	829361.0	0.273144	0.571683
     29829.58	0.11978	1672812.0	1273155.0	718713.0	0.273008	0.571791
     29830.09	0.13258	1861601.0	1416783.0	800342.0	0.273048	0.571105
     29830.60	0.13142	1838766.0	1399925.0	790635.0	0.272676	0.571338
     29831.11	0.14640	2062541.0	1569624.0	886702.0	0.273103	0.571082
     29831.63	0.13655	1915094.0	1457489.0	823459.0	0.273052	0.570957
     29832.14	0.12960	1821009.0	1385805.0	782643.0	0.273110	0.571360
     29832.65	0.12607	1752688.0	1334283.0	753897.0	0.272757	0.570894
     29833.16	0.11912	1659035.0	1262881.0	713608.0	0.272840	0.570817
     29833.67	0.12985	1820025.0	1385748.0	783282.0	0.272610	0.570503
     29834.19	0.12695	1775453.0	1351664.0	763982.0	0.272719	0.570547
     29834.70	0.12433	1750433.0	1332773.0	753367.0	0.272601	0.570465
     29835.21	0.13674	1920929.0	1462492.0	827095.0	0.272667	0.569978
     29835.72	0.11697	1648089.0	1254685.0	709555.0	0.272732	0.570002
     29836.23	0.13698	1931193.0	1470244.0	831620.0	0.272710	0.569808
     29836.75	0.11560	1630208.0	1241289.0	701708.0	0.272557	0.570388
     29837.26	0.12314	1734431.0	1320878.0	747107.0	0.272383	0.569844
     29837.77	0.11713	1648054.0	1255132.0	710242.0	0.272354	0.569390
     29838.28	0.13064	1835072.0	1397978.0	791248.0	0.272057	0.569171
     29838.80	0.12580	1757666.0	1338546.0	757771.0	0.272403	0.568958
     29839.31	0.12308	1730021.0	1317621.0	745769.0	0.272306	0.569167
     29839.82	0.12148	1709087.0	1301816.0	736793.0	0.272199	0.569209
     29840.33	0.10938	1536332.0	1170168.0	662313.0	0.272250	0.569164
     29840.84	0.12806	1806487.0	1375910.0	778880.0	0.272269	0.569014
     29841.36	0.12192	1718219.0	1308511.0	740829.0	0.272398	0.568875
     29841.87	0.11784	1654642.0	1259954.0	713656.0	0.272509	0.568429
     29842.38	0.12473	1750950.0	1334037.0	755453.0	0.271949	0.568647
     29842.89	0.12624	1766276.0	1345832.0	762438.0	0.271861	0.568246
     29843.41	0.13387	1888958.0	1439042.0	815233.0	0.272048	0.568259
     29843.92	0.13099	1840762.0	1402315.0	794458.0	0.272055	0.568220
     29844.43	0.12098	1701168.0	1296117.0	734406.0	0.271942	0.568066
     29844.94	0.13462	1892093.0	1441484.0	816975.0	0.272010	0.567820
     29845.46	0.11608	1626661.0	1239549.0	702621.0	0.271782	0.567685
     29845.97	0.12832	1805787.0	1376114.0	780194.0	0.271733	0.567476
     29846.48	0.12013	1660591.0	1265384.0	717566.0	0.271798	0.567266
     29846.99	0.12613	1753400.0	1336593.0	757557.0	0.271433	0.567780
     29847.50	0.13242	1846553.0	1407248.0	797715.0	0.271685	0.567640
     29848.02	0.11657	1634092.0	1245273.0	706313.0	0.271733	0.567052
     29848.53	0.12054	1688730.0	1287058.0	730207.0	0.271618	0.566786
     29849.04	0.13981	1964971.0	1497200.0	849379.0	0.271881	0.566846
     29849.56	0.11689	1643304.0	1252574.0	710618.0	0.271508	0.566821
     29850.07	0.12543	1766425.0	1346529.0	763888.0	0.271428	0.566864
     29850.58	0.13633	1920171.0	1463994.0	830848.0	0.271246	0.566477
     29851.09	0.13006	1832248.0	1396849.0	792677.0	0.271325	0.566558
     29851.61	0.12992	1830833.0	1395939.0	792369.0	0.271204	0.566295
     29852.12	0.13812	1941404.0	1479996.0	840124.0	0.271372	0.566245
     29852.63	0.12241	1718898.0	1310675.0	744154.0	0.271141	0.566050
     29853.14	0.12719	1791930.0	1366210.0	775477.0	0.271253	0.566317
     29853.66	0.12856	1809243.0	1379681.0	783487.0	0.271056	0.565853
     29854.17	0.12846	1807968.0	1378256.0	782579.0	0.271385	0.565979
     29854.68	0.11901	1674319.0	1276635.0	725155.0	0.271179	0.565598
     29855.19	0.12885	1801537.0	1374078.0	780189.0	0.270857	0.566002
     29855.71	0.12085	1699105.0	1295740.0	736171.0	0.271020	0.565375
     29856.22	0.12884	1814606.0	1383326.0	786017.0	0.271378	0.565268
     29856.73	0.11834	1665728.0	1270405.0	722036.0	0.270927	0.565016
     29857.25	0.12302	1728258.0	1318007.0	749303.0	0.270993	0.564733
     29857.76	0.11211	1574790.0	1201107.0	682769.0	0.270878	0.564842
     29858.27	0.12277	1721885.0	1312935.0	746489.0	0.271155	0.564639
     29858.78	0.11944	1678314.0	1280091.0	727863.0	0.270859	0.564574
     29859.30	0.12340	1732366.0	1321486.0	751549.0	0.270731	0.564376
     29859.81	0.11677	1639796.0	1250781.0	711211.0	0.270804	0.564554
     29860.32	0.12557	1766337.0	1347591.0	766443.0	0.270589	0.564314
     29860.84	0.11584	1627486.0	1241589.0	706416.0	0.270644	0.563943
     29861.35	0.10017	1410044.0	1075594.0	611970.0	0.270748	0.563945
     29861.86	0.10817	1517406.0	1157495.0	658575.0	0.270744	0.563935
     29862.37	0.12860	1808575.0	1379583.0	785152.0	0.270758	0.563659
     29862.89	0.13887	1945946.0	1484681.0	844945.0	0.270548	0.563684
     29863.40	0.12405	1741703.0	1328690.0	756523.0	0.270670	0.563216
     29863.91	0.12782	1790672.0	1366419.0	778044.0	0.270398	0.563166
     29864.43	0.13170	1848986.0	1410675.0	803151.0	0.270569	0.563281
     29864.94	0.13776	1928019.0	1471283.0	837657.0	0.270358	0.563281
     29865.45	0.11368	1590585.0	1213937.0	691056.0	0.270233	0.563403
     29865.97	0.13571	1906606.0	1454952.0	828362.0	0.270352	0.563278
     29866.48	0.12558	1762186.0	1344582.0	765911.0	0.270472	0.562772
     29866.99	0.12874	1805259.0	1377602.0	785014.0	0.270360	0.562398
     29867.50	0.12458	1748040.0	1333654.0	759748.0	0.270573	0.562691
     29868.02	0.12753	1784323.0	1362075.0	776255.0	0.270030	0.562283
     29868.53	0.13349	1865091.0	1423543.0	810948.0	0.270161	0.562700
     29869.04	0.13811	1930079.0	1473310.0	839746.0	0.270049	0.562167
     29869.56	0.12686	1776269.0	1355899.0	772764.0	0.270050	0.562246
     29870.07	0.12920	1803669.0	1376285.0	784308.0	0.270435	0.562341
     29870.58	0.13240	1852465.0	1413980.0	806137.0	0.270109	0.561910
     29871.10	0.13589	1902725.0	1452530.0	828182.0	0.269980	0.561829
     29871.61	0.13894	1945748.0	1485637.0	847043.0	0.269803	0.561847
     29872.12	0.13184	1836186.0	1401755.0	799344.0	0.269966	0.561689
     29872.64	0.13654	1912848.0	1460315.0	832666.0	0.269941	0.561775
     29873.15	0.13200	1849288.0	1411739.0	805265.0	0.269978	0.561406
     29873.66	0.12622	1771397.0	1352335.0	771570.0	0.269936	0.561161
     29874.18	0.12410	1741120.0	1329113.0	758463.0	0.270017	0.560973
     29874.69	0.12970	1816725.0	1386966.0	791188.0	0.269917	0.561338
     29875.20	0.13473	1890594.0	1443658.0	824063.0	0.269711	0.560688
     29875.72	0.12782	1793808.0	1369739.0	781459.0	0.269721	0.561213
     29876.23	0.11899	1670123.0	1275029.0	727628.0	0.269928	0.560934
     29876.74	0.12084	1695438.0	1294762.0	739268.0	0.269614	0.560422
     29877.26	0.13272	1861577.0	1421584.0	811422.0	0.269652	0.560739
     29877.77	0.11803	1652769.0	1262451.0	720649.0	0.269397	0.560658
     29878.29	0.12488	1742377.0	1330825.0	759525.0	0.269451	0.560861
     29878.80	0.12714	1783930.0	1362710.0	777816.0	0.269343	0.560741
     29879.31	0.12316	1720853.0	1314415.0	750483.0	0.269428	0.560430
     29879.83	0.12086	1685167.0	1287310.0	735194.0	0.269310	0.560176
     29880.34	0.12807	1790108.0	1367764.0	781010.0	0.269099	0.560345
     29880.85	0.12657	1738203.0	1328096.0	758554.0	0.269105	0.560088
     29881.37	0.11425	1575305.0	1203338.0	687474.0	0.269350	0.559831
     29881.88	0.11912	1648215.0	1258769.0	719077.0	0.269559	0.559921
     29882.39	0.11799	1641619.0	1254069.0	716323.0	0.269289	0.560018
     29882.91	0.12091	1683171.0	1285918.0	735070.0	0.269207	0.559262
     29883.42	0.11890	1661437.0	1269454.0	725784.0	0.269096	0.559090
     29883.94	0.13165	1832079.0	1399617.0	800135.0	0.269253	0.559173
     29884.45	0.13288	1856549.0	1418582.0	811115.0	0.269062	0.559003
     29884.96	0.12391	1723954.0	1317418.0	752891.0	0.268947	0.559509
     29885.48	0.13275	1826772.0	1395611.0	798184.0	0.269218	0.558748
     29885.99	0.12302	1702685.0	1300990.0	743819.0	0.269081	0.559083
     29886.50	0.13204	1837546.0	1403787.0	802819.0	0.269257	0.558800
     29887.02	0.13317	1848845.0	1412793.0	807943.0	0.268993	0.558832
     29887.53	0.12763	1778818.0	1359204.0	777704.0	0.269050	0.558309
     29888.05	0.11242	1571915.0	1201310.0	686993.0	0.268882	0.558844
     29888.56	0.12350	1725330.0	1318825.0	754425.0	0.268677	0.558541
     29889.07	0.13270	1854652.0	1417577.0	811117.0	0.268748	0.558292
     29889.59	0.12172	1700515.0	1300073.0	743511.0	0.268511	0.558792
     29890.10	0.12684	1764878.0	1349410.0	772317.0	0.268414	0.558028
     29890.62	0.11834	1654386.0	1264247.0	723725.0	0.268953	0.557820
     29891.13	0.13008	1818068.0	1389575.0	795434.0	0.268776	0.557865
     29891.64	0.12803	1788116.0	1366695.0	782432.0	0.268767	0.557744
     29892.16	0.13231	1838924.0	1405818.0	804803.0	0.268561	0.557777
     29892.67	0.12396	1729898.0	1322752.0	757410.0	0.268348	0.557565
     29893.19	0.13258	1847738.0	1412833.0	808984.0	0.268365	0.557573
     29893.70	0.14678	2048941.0	1566151.0	897144.0	0.268702	0.557160
     29894.21	0.11244	1572367.0	1202231.0	688330.0	0.268403	0.557666
     29894.73	0.12436	1736661.0	1327603.0	760179.0	0.268589	0.557576
     29895.24	0.11798	1644108.0	1257068.0	720067.0	0.268416	0.557193
     29895.76	0.12175	1697624.0	1298155.0	743304.0	0.268286	0.557594
     29896.27	0.14272	1977387.0	1512360.0	866450.0	0.268105	0.557022
     29896.78	0.11692	1624786.0	1242276.0	711841.0	0.268431	0.556846
     29897.30	0.12271	1713139.0	1310417.0	750801.0	0.267982	0.556960
     29897.81	0.14725	2051638.0	1569185.0	899302.0	0.268082	0.556693
     29898.33	0.12398	1727574.0	1321483.0	757247.0	0.267964	0.556820
     29898.84	0.090311	1254821.0	959960.0	550000.0	0.267857	0.556973
     29899.36	0.13024	1814266.0	1387344.0	795123.0	0.268290	0.556650
     29899.87	0.11912	1657028.0	1267365.0	726754.0	0.268086	0.556107
     29900.38	0.11923	1662720.0	1271586.0	729069.0	0.268190	0.556252
     29900.90	0.11521	1590539.0	1216538.0	697561.0	0.268064	0.556174
     29901.41	0.11969	1669813.0	1277297.0	732423.0	0.267966	0.556143
     29901.93	0.13770	1907778.0	1459458.0	836946.0	0.267874	0.556061
     29902.44	0.13385	1853926.0	1418294.0	813373.0	0.267851	0.556020
     29902.96	0.078813	1091695.0	835399.0	479179.0	0.267577	0.555835
     29903.47	0.11150	1547824.0	1184073.0	679323.0	0.267890	0.555619
     29903.98	0.12381	1713122.0	1311022.0	752272.0	0.267510	0.555464
     29904.50	0.11874	1644804.0	1258694.0	722208.0	0.267547	0.555517
     29905.01	0.12466	1727747.0	1322298.0	758805.0	0.267447	0.555382
     29905.53	0.13670	1898422.0	1452535.0	833517.0	0.267713	0.555411
     29906.04	0.12230	1697063.0	1298840.0	745509.0	0.267428	0.555160
     29906.56	0.15554	2149672.0	1644917.0	944528.0	0.267625	0.554760
     29907.07	0.11216	1551662.0	1187308.0	681869.0	0.267638	0.554606
     29907.59	0.12791	1757525.0	1345270.0	772437.0	0.267312	0.554800
     29908.10	0.12376	1704046.0	1303899.0	748826.0	0.267646	0.554608
     29908.62	0.13741	1908866.0	1460954.0	838574.0	0.267420	0.555142
     29909.13	0.12746	1754678.0	1343053.0	771605.0	0.267340	0.554228
     29909.64	0.12431	1717782.0	1315118.0	755188.0	0.267108	0.554715
     29910.16	0.19105	2632880.0	2015640.0	1157864.0	0.267142	0.554360
     29910.67	0.11489	1593483.0	1219566.0	700425.0	0.267427	0.554563
     29911.19	0.088699	1222903.0	936266.0	537857.0	0.267083	0.554307
     29911.70	0.13083	1785390.0	1367204.0	785153.0	0.266869	0.554644
     29912.22	0.14396	1990578.0	1524187.0	875759.0	0.266964	0.554125
     29912.73	0.12147	1650984.0	1264207.0	726569.0	0.266926	0.553867
     29913.25	0.14292	1955602.0	1497185.0	860234.0	0.267111	0.554138
     29913.76	0.12620	1718142.0	1315933.0	756538.0	0.266698	0.553548
     29914.28	0.14393	1981508.0	1517036.0	871855.0	0.267100	0.553891
     29914.79	0.14452	1992379.0	1525779.0	876846.0	0.266824	0.553929
     29915.31	0.11159	1531951.0	1173008.0	674518.0	0.266971	0.553328
     29915.82	0.13303	1838294.0	1407620.0	809590.0	0.266938	0.553128
     29916.34	0.12201	1682522.0	1288478.0	741171.0	0.266832	0.552986
     29916.85	0.12436	1717472.0	1315077.0	756414.0	0.266958	0.553062
     29917.37	0.12811	1766399.0	1352735.0	777997.0	0.266815	0.553161
     29917.88	0.12654	1741890.0	1334009.0	767272.0	0.266782	0.553103
     29918.40	0.12525	1724996.0	1320888.0	759788.0	0.266920	0.553020
     29918.91	0.12508	1724519.0	1320391.0	759769.0	0.267020	0.552669
     29919.43	0.12636	1740906.0	1333315.0	767030.0	0.266737	0.552898
     29919.94	0.11424	1568248.0	1201444.0	691460.0	0.266435	0.552474
     29920.46	0.13192	1803601.0	1381498.0	794956.0	0.266617	0.552637
     29920.97	0.12574	1725628.0	1321933.0	760896.0	0.266496	0.552354
     29921.49	0.11707	1615746.0	1237895.0	712729.0	0.266384	0.552066
     29922.00	0.12425	1705712.0	1306621.0	752236.0	0.266538	0.552150
     29922.52	0.12469	1705514.0	1306632.0	752185.0	0.266414	0.552226
     29923.03	0.11161	1531473.0	1173402.0	675926.0	0.266323	0.551579
     29923.55	0.13567	1873490.0	1435106.0	826424.0	0.266564	0.551886
     29924.06	0.12179	1679182.0	1286421.0	741236.0	0.266443	0.551300
     29924.58	0.11333	1555131.0	1191621.0	686516.0	0.266245	0.551440
     29925.09	0.12438	1708164.0	1309089.0	754126.0	0.266088	0.551527
     29925.61	0.11633	1588304.0	1216837.0	701184.0	0.266412	0.551240
     29926.12	0.13258	1820927.0	1395418.0	804137.0	0.266152	0.551180
     29926.64	0.11899	1634896.0	1252860.0	722162.0	0.266150	0.550935
     29927.15	0.13138	1798226.0	1377954.0	794380.0	0.266201	0.550793
     29927.67	0.12307	1681261.0	1288472.0	742510.0	0.266087	0.551176
     29928.18	0.13269	1820178.0	1394824.0	804265.0	0.266166	0.550595
     29928.70	0.12251	1666750.0	1277562.0	736450.0	0.265922	0.550868
     29929.21	0.13736	1888700.0	1447802.0	834877.0	0.265842	0.550517
     29929.73	0.12029	1649677.0	1264373.0	729238.0	0.266003	0.550331
     29930.24	0.12473	1711234.0	1311550.0	756496.0	0.266005	0.550268
     29930.76	0.12336	1691821.0	1296605.0	747657.0	0.266056	0.550560
     29931.27	0.12181	1676825.0	1285496.0	741256.0	0.265757	0.550554
     29931.79	0.12139	1661872.0	1274259.0	734813.0	0.265580	0.550504
     29932.31	0.12238	1677864.0	1286140.0	741995.0	0.265876	0.550058
     29932.82	0.12710	1751518.0	1342596.0	774491.0	0.265878	0.550154
     29933.34	0.13439	1830940.0	1403937.0	810084.0	0.265549	0.549898
     29933.85	0.12595	1724346.0	1322325.0	763226.0	0.265456	0.549593
     29934.37	0.12825	1756273.0	1346970.0	777451.0	0.265336	0.549592
     29934.88	0.13257	1817627.0	1393904.0	804574.0	0.265423	0.549551
     29935.40	0.12508	1703280.0	1306038.0	754136.0	0.265558	0.549181
     29935.91	0.13233	1819034.0	1394893.0	805346.0	0.265488	0.549301
     29936.43	0.11906	1640064.0	1258144.0	726715.0	0.265098	0.548859
     29936.94	0.13054	1780068.0	1365249.0	788171.0	0.265315	0.549377
     29937.46	0.12361	1696259.0	1301055.0	751533.0	0.265250	0.548816
     29937.98	0.13757	1881615.0	1442854.0	833302.0	0.265507	0.548982
     29938.49	0.12090	1668108.0	1279225.0	738951.0	0.265436	0.548778
     29939.01	0.12290	1686399.0	1293629.0	747592.0	0.265144	0.548349
     29939.52	0.11993	1649792.0	1265322.0	731210.0	0.265323	0.548381
     29940.04	0.12251	1672844.0	1283108.0	741644.0	0.265240	0.548171
     29940.55	0.12330	1685875.0	1293334.0	747318.0	0.265061	0.548488
     29941.07	0.11744	1611885.0	1236816.0	714577.0	0.264864	0.548605
     29941.59	0.12324	1690010.0	1296595.0	749380.0	0.264993	0.548251
     29942.10	0.11488	1559784.0	1196565.0	691678.0	0.265092	0.548090
     29942.62	0.11726	1616014.0	1239548.0	716724.0	0.265216	0.547811
     29943.13	0.11854	1632979.0	1253003.0	724279.0	0.264863	0.548122
     29943.65	0.11296	1556766.0	1194912.0	690759.0	0.264538	0.548037
     29944.16	0.10969	1501915.0	1152352.0	666286.0	0.264936	0.547841
     29944.68	0.11522	1554200.0	1192574.0	689470.0	0.264847	0.547946
     29945.20	0.12647	1729088.0	1326518.0	767170.0	0.265037	0.547604
     29945.71	0.11465	1564142.0	1200198.0	694590.0	0.264851	0.546920
     29946.23	0.12825	1754479.0	1346299.0	778816.0	0.264813	0.547340
     29946.74	0.12796	1745276.0	1339935.0	775317.0	0.264292	0.547104
     29947.26	0.12438	1694938.0	1301021.0	752523.0	0.264497	0.547473
     29947.78	0.12981	1758820.0	1349886.0	781146.0	0.264623	0.547013
     29948.29	0.13046	1782621.0	1368359.0	792058.0	0.264473	0.546733
     29948.81	0.13081	1777731.0	1364634.0	789987.0	0.264452	0.546625
     29949.32	0.13058	1787038.0	1371887.0	794207.0	0.264372	0.546598
     29949.84	0.12489	1680157.0	1289996.0	746856.0	0.264248	0.546522
     29950.36	0.13544	1833366.0	1407270.0	814816.0	0.264502	0.546445
     29950.87	0.12896	1767824.0	1357348.0	786077.0	0.264217	0.546233
     29951.39	0.12755	1751597.0	1344931.0	778966.0	0.264185	0.546131
     29951.90	0.12580	1715606.0	1317187.0	762799.0	0.264268	0.546259
     29952.42	0.12112	1651931.0	1268291.0	734608.0	0.264275	0.546089
     29952.94	0.13546	1845846.0	1417589.0	821262.0	0.263980	0.545871
     29953.45	0.13185	1793555.0	1377303.0	798222.0	0.264072	0.545496
     29953.97	0.13525	1844139.0	1415868.0	820266.0	0.264270	0.545869
     29954.48	0.13940	1888574.0	1449931.0	840761.0	0.264306	0.544964
     29955.00	0.13410	1810178.0	1390299.0	805895.0	0.263906	0.545321
     29955.52	0.12488	1710298.0	1313135.0	761039.0	0.264250	0.545488
     29956.03	0.13653	1831388.0	1406592.0	815642.0	0.263904	0.544950
     29956.55	0.13035	1767852.0	1357676.0	787324.0	0.263991	0.544890
     29957.07	0.13243	1805266.0	1386344.0	803807.0	0.264038	0.545066
     29957.58	0.12367	1661162.0	1275996.0	739905.0	0.263790	0.544961
     29958.10	0.12650	1706537.0	1310854.0	760581.0	0.263787	0.544351
     29958.61	0.13339	1800999.0	1383543.0	802424.0	0.263694	0.544766
     29959.13	0.12174	1658943.0	1274036.0	739094.0	0.263991	0.544520
     29959.65	0.12220	1665293.0	1279167.0	742185.0	0.263792	0.544366
     29960.16	0.12629	1713817.0	1316926.0	764008.0	0.263423	0.544477
     29960.68	0.12723	1739499.0	1336377.0	775683.0	0.263635	0.543974
     29961.20	0.13187	1765413.0	1356379.0	787179.0	0.263566	0.544118
     29961.71	0.11758	1611899.0	1238205.0	718867.0	0.263750	0.543742
     29962.23	0.13709	1864780.0	1432818.0	831924.0	0.263500	0.543657
     29962.75	0.12081	1652083.0	1269254.0	736846.0	0.263608	0.543806
     29963.26	0.12489	1687101.0	1296324.0	752424.0	0.263479	0.543988
     29963.78	0.11442	1555105.0	1194949.0	693787.0	0.263440	0.543694
     29964.30	0.12248	1659694.0	1275701.0	740545.0	0.263137	0.543865
     29964.81	0.11598	1572331.0	1208557.0	702055.0	0.263132	0.543171
     29965.33	0.12575	1682028.0	1292519.0	750897.0	0.263407	0.543080
     29965.84	0.12755	1721115.0	1322710.0	768446.0	0.263290	0.543068
     29966.36	0.10881	1483173.0	1139749.0	662018.0	0.263376	0.543271
     29966.88	0.12604	1727006.0	1327392.0	771087.0	0.263173	0.543170
     29967.39	0.12947	1743238.0	1340063.0	778684.0	0.263028	0.542867
     29967.91	0.12877	1752659.0	1346922.0	782957.0	0.263312	0.542499
     29968.43	0.13685	1858078.0	1428314.0	830165.0	0.263048	0.542626
     29968.94	0.10993	1488967.0	1144366.0	665184.0	0.263232	0.542542
     29969.46	0.13431	1830684.0	1406916.0	817863.0	0.263290	0.542461
     29969.98	0.13060	1770469.0	1360597.0	791130.0	0.263321	0.542217
     29970.49	0.12748	1729159.0	1329366.0	773086.0	0.262933	0.542067
     29971.01	0.13259	1798825.0	1382888.0	803849.0	0.262960	0.542518
     29971.53	0.11953	1626479.0	1250361.0	727026.0	0.262985	0.542225
     29972.04	0.12445	1697752.0	1304912.0	758946.0	0.263169	0.541960
     29972.56	0.14452	1969371.0	1514098.0	880516.0	0.262894	0.542067
     29973.08	0.097422	1324332.0	1018533.0	592350.0	0.262545	0.542021
     29973.60	0.12686	1732953.0	1332245.0	774903.0	0.262961	0.541883
     29974.11	0.12206	1658228.0	1274821.0	741568.0	0.262944	0.541794
     29974.63	0.12699	1737135.0	1335979.0	777297.0	0.262573	0.541597
     29975.15	0.13422	1831558.0	1408469.0	819206.0	0.262664	0.541923
     29975.66	0.13055	1768770.0	1360225.0	791585.0	0.262634	0.541368
     29976.18	0.12632	1725424.0	1326954.0	772332.0	0.262587	0.541227
     29976.70	0.17789	2425588.0	1865562.0	1086421.0	0.262512	0.540674
     29977.21	0.087998	1203387.0	925484.0	538830.0	0.262579	0.540917
     29977.73	0.12128	1652395.0	1270736.0	739802.0	0.262629	0.540969
     29978.25	0.12255	1662116.0	1278256.0	744268.0	0.262595	0.540851
     29978.76	0.13221	1797197.0	1382237.0	805030.0	0.262525	0.540579
     29979.28	0.12646	1709200.0	1314630.0	765525.0	0.262470	0.540749
     29979.80	0.12991	1776159.0	1366539.0	796089.0	0.262172	0.540326
     29980.32	0.13036	1780917.0	1370190.0	798222.0	0.262179	0.540318
     29980.83	0.18883	2568089.0	1975417.0	1150815.0	0.262383	0.540309
     29981.35	0.090342	1235192.0	950514.0	553767.0	0.261979	0.540259
     29981.87	0.11370	1538943.0	1183731.0	689894.0	0.262425	0.539889
     29982.38	0.10029	1355709.0	1043284.0	608061.0	0.261951	0.539854
     29982.90	0.10958	1470710.0	1131964.0	659649.0	0.261791	0.540002
     29983.42	0.11943	1612842.0	1240621.0	723270.0	0.262386	0.539585
     29983.94	0.14205	1921411.0	1478573.0	861838.0	0.261982	0.539765
     29984.45	0.11319	1543334.0	1187737.0	692456.0	0.261895	0.539560
     29984.97	0.14340	1963227.0	1510283.0	880512.0	0.262292	0.539549
     29985.49	0.10867	1468551.0	1130545.0	659239.0	0.261576	0.539369
     29986.00	0.086362	1163698.0	895417.0	522242.0	0.262069	0.539158
     29986.52	0.11499	1542603.0	1187178.0	692005.0	0.261892	0.539741
     29987.04	0.10805	1449363.0	1115476.0	650600.0	0.261843	0.539141
     29987.56	0.11595	1571200.0	1209347.0	705300.0	0.261759	0.539213
     29988.07	0.13680	1845389.0	1420378.0	828978.0	0.261767	0.538485
     29988.59	0.13777	1854885.0	1428042.0	833657.0	0.261518	0.538238
     29989.11	0.19126	2576416.0	1983698.0	1157360.0	0.261437	0.538821
     29989.63	0.087789	1183400.0	910831.0	531510.0	0.261790	0.538635
     29990.14	0.10605	1431222.0	1102070.0	642957.0	0.261338	0.538868
     29990.66	0.11060	1488176.0	1145947.0	669068.0	0.261320	0.538101
     29991.18	0.13838	1850190.0	1424486.0	831563.0	0.261477	0.538259
     29991.70	0.12449	1680900.0	1293797.0	755042.0	0.261748	0.538563
     29992.21	0.13163	1775536.0	1367185.0	798143.0	0.261348	0.538221
     29992.73	0.12642	1704056.0	1311752.0	766219.0	0.261648	0.537651
     29993.25	0.20576	2794428.0	2151656.0	1256170.0	0.261390	0.538170
     29993.77	0.10196	1387469.0	1068580.0	623798.0	0.261151	0.538259
     29994.28	0.095987	1304913.0	1004631.0	586706.0	0.261516	0.537852
     29994.80	0.11075	1514495.0	1166466.0	681008.0	0.261103	0.538160
     29995.32	0.13452	1837156.0	1414492.0	826395.0	0.261448	0.537453
     29995.84	0.14405	1956471.0	1506704.0	880376.0	0.261218	0.537331
     29996.35	0.12665	1710332.0	1317426.0	769415.0	0.261008	0.537805
     29996.87	0.15311	2068708.0	1593413.0	930977.0	0.261046	0.537399
     29997.39	0.18947	2559271.0	1971059.0	1152046.0	0.261151	0.537031
     29997.91	0.072600	988266.0	761180.0	444945.0	0.261082	0.536919
     29998.42	0.11692	1583511.0	1219693.0	712824.0	0.261045	0.537120
     29998.94	0.12984	1761211.0	1356290.0	792951.0	0.261249	0.536747
     29999.46	0.13194	1789577.0	1378336.0	805734.0	0.261102	0.536879
     29999.98	0.12626	1677181.0	1291779.0	755479.0	0.261094	0.536424
     30000.50	0.12604	1695874.0	1306342.0	763524.0	0.260967	0.537042
     30001.01	0.12546	1682638.0	1296096.0	757713.0	0.261006	0.536807
     30001.53	0.11652	1575806.0	1213976.0	710281.0	0.260866	0.535996
     30002.05	0.13781	1858537.0	1431649.0	837452.0	0.260963	0.536218
     30002.57	0.11970	1620988.0	1248811.0	730457.0	0.260844	0.536277
     30003.08	0.12319	1658024.0	1277815.0	747469.0	0.260475	0.536214
     30003.60	0.12865	1740482.0	1341387.0	784582.0	0.260458	0.536308
     30004.12	0.12026	1607248.0	1238188.0	724530.0	0.260874	0.535881
     30004.64	0.13483	1801442.0	1388362.0	812132.0	0.260463	0.536217
     30005.16	0.11211	1513023.0	1165843.0	682250.0	0.260665	0.535804
     30005.67	0.12205	1654631.0	1274954.0	746322.0	0.260668	0.535508
     30006.19	0.12149	1622720.0	1250745.0	731677.0	0.260364	0.536155
     30006.71	0.12134	1643343.0	1266286.0	741219.0	0.260644	0.535547
     30007.23	0.11841	1602230.0	1234720.0	722673.0	0.260552	0.535643
     30007.75	0.12696	1707048.0	1315777.0	770650.0	0.260338	0.534948
     30008.26	0.11086	1488743.0	1147769.0	672179.0	0.260112	0.535051
     30008.78	0.12933	1750034.0	1348850.0	790221.0	0.260383	0.534695
     30009.30	0.13020	1754860.0	1352533.0	792104.0	0.260410	0.535042
     30009.82	0.12835	1736058.0	1338563.0	783686.0	0.260020	0.535343
     30010.34	0.13543	1837903.0	1416992.0	830020.0	0.260089	0.534842
     30010.86	0.13259	1781390.0	1373446.0	804496.0	0.260071	0.534862
     30011.37	0.12583	1688934.0	1301766.0	762860.0	0.260376	0.534403
     30011.89	0.12948	1735823.0	1338442.0	784180.0	0.259975	0.534623
     30012.41	0.12930	1742971.0	1343858.0	787333.0	0.260047	0.534649
     30012.93	0.12523	1689569.0	1302593.0	763436.0	0.260117	0.534283
     30013.45	0.11464	1536793.0	1184830.0	694483.0	0.260098	0.534187
     30013.96	0.12624	1686605.0	1300534.0	762247.0	0.259943	0.534260
     30014.48	0.11812	1593266.0	1228608.0	720302.0	0.259904	0.533967
     30015.00	0.12177	1646993.0	1270319.0	744644.0	0.259683	0.534117
     30015.52	0.13596	1831373.0	1412280.0	827941.0	0.259861	0.534019
     30016.04	0.12880	1735354.0	1338330.0	784545.0	0.259789	0.534074
     30016.56	0.12908	1733466.0	1336943.0	784053.0	0.259737	0.533664
     30017.07	0.12360	1662287.0	1282017.0	751990.0	0.259760	0.533467
     30017.59	0.13068	1754989.0	1353294.0	793771.0	0.259921	0.533502
     30018.11	0.13499	1814367.0	1399615.0	821274.0	0.259539	0.533096
     30018.63	0.12409	1683943.0	1299205.0	762021.0	0.259386	0.533534
     30019.15	0.12447	1677518.0	1293728.0	758970.0	0.259787	0.533321
     30019.67	0.13529	1836424.0	1416724.0	831392.0	0.259473	0.533001
     30020.18	0.11698	1578278.0	1217539.0	714640.0	0.259503	0.532808
     30020.70	0.12461	1691066.0	1304125.0	765324.0	0.259827	0.532988
     30021.22	0.14423	1965080.0	1515706.0	889805.0	0.259652	0.532634
     30021.74	0.12386	1680596.0	1296606.0	761072.0	0.259398	0.532777
     30022.26	0.11711	1589592.0	1226518.0	720199.0	0.259298	0.532407
     30022.78	0.11683	1595425.0	1231030.0	722667.0	0.259289	0.532658
     30023.30	0.13172	1774774.0	1368919.0	803748.0	0.259652	0.532491
     30023.81	0.10545	1439762.0	1110753.0	652369.0	0.259440	0.532183
     30024.33	0.12416	1696256.0	1308894.0	768784.0	0.259241	0.532128
     30024.85	0.12256	1667597.0	1286742.0	756117.0	0.259270	0.531673
     30025.37	0.14175	1925698.0	1486154.0	873080.0	0.259097	0.531920
     30025.89	0.11049	1498944.0	1156829.0	679376.0	0.259078	0.532263
     30026.41	0.088120	1189680.0	917729.0	539424.0	0.259538	0.531400
     30026.93	0.12043	1635353.0	1262232.0	741384.0	0.258977	0.532118
     30027.44	0.11325	1540457.0	1188821.0	698379.0	0.259117	0.531955
     30027.96	0.12452	1693632.0	1307019.0	768297.0	0.259126	0.531328
     30028.48	0.11965	1633433.0	1260456.0	740764.0	0.259210	0.531547
     30029.00	0.13247	1802651.0	1391241.0	817898.0	0.259062	0.531214
     30029.52	0.14245	1943954.0	1500267.0	881754.0	0.259081	0.531485
     30030.04	0.12221	1663252.0	1283620.0	754490.0	0.259091	0.531397
     30030.56	0.11202	1524744.0	1177448.0	692399.0	0.258477	0.530942
     30031.08	0.12434	1695417.0	1308714.0	769678.0	0.258884	0.530828
     30031.60	0.13099	1779731.0	1373847.0	807708.0	0.258847	0.531170
     30032.11	0.13449	1834989.0	1416459.0	832936.0	0.258878	0.530959
     30032.63	0.13173	1774877.0	1370427.0	805847.0	0.258609	0.530984
     30033.15	0.16217	2199858.0	1698338.0	999054.0	0.258743	0.530597
     30033.67	0.13165	1783001.0	1376634.0	809805.0	0.258657	0.530603
     30034.19	0.089859	1218447.0	941264.0	553696.0	0.258109	0.530608
     30034.71	0.11750	1594099.0	1230920.0	724099.0	0.258547	0.530589
     30035.23	0.13819	1858915.0	1435304.0	844528.0	0.258616	0.530354
     30035.75	0.13618	1849294.0	1428056.0	840305.0	0.258490	0.530304
     30036.27	0.13454	1825487.0	1409805.0	829688.0	0.258395	0.530157
     30036.78	0.13060	1778336.0	1373252.0	808587.0	0.258496	0.529649
     30037.30	0.13864	1883340.0	1454199.0	856315.0	0.258592	0.529572
     30037.82	0.14044	1906081.0	1472003.0	866754.0	0.258425	0.529624
     30038.34	0.11938	1620963.0	1252026.0	737178.0	0.258257	0.529689
     30038.86	0.13066	1773836.0	1370195.0	806465.0	0.258191	0.530048
     30039.38	0.13178	1794893.0	1386971.0	816699.0	0.257823	0.529607
     30039.90	0.12703	1719135.0	1328212.0	782446.0	0.257988	0.529164
     30040.42	0.12671	1720460.0	1329226.0	782947.0	0.257995	0.529287
     30040.94	0.12612	1709160.0	1320080.0	777085.0	0.258310	0.529898
     30041.46	0.13055	1774918.0	1371124.0	807852.0	0.258123	0.529007
     30041.98	0.12170	1655826.0	1279612.0	753819.0	0.257743	0.529160
     30042.50	0.12332	1676303.0	1295080.0	763387.0	0.258018	0.528563
     30043.01	0.13008	1771169.0	1368321.0	806340.0	0.258055	0.528834
     30043.53	0.12697	1715342.0	1325400.0	781225.0	0.257898	0.528606
     30044.05	0.13168	1785014.0	1379491.0	812805.0	0.257712	0.528979
     30044.57	0.11724	1596642.0	1233767.0	727334.0	0.257831	0.528442
     30045.09	0.13201	1785362.0	1379331.0	812960.0	0.258023	0.528672
     30045.61	0.11443	1558059.0	1203965.0	709625.0	0.257821	0.528639
     30046.13	0.11748	1593198.0	1230907.0	725911.0	0.257992	0.528079
     30046.65	0.12560	1700939.0	1314466.0	775319.0	0.257750	0.527911
     30047.17	0.12096	1645002.0	1271123.0	749731.0	0.257841	0.527942
     30047.69	0.12083	1639342.0	1266994.0	747337.0	0.257648	0.527886
     30048.21	0.11694	1589535.0	1228223.0	724630.0	0.257873	0.527663
     30048.73	0.12223	1663952.0	1286269.0	758600.0	0.257450	0.528026
     30049.25	0.13871	1872725.0	1447377.0	853748.0	0.257642	0.527872
