# Diamond Light Source
# Instrument: B18-CORE XAS Date: Thu, 28 Jul 2016 02:08:46 BST
# Ring energy:   3.0
# Ring current - start: 298.7
# Primary slits:  vertical gap=  2.4; horizontal gap= 52.0; vertical offset=  0.4; horizontal offset= -1.0
# Secondary slits:  vertical gap=  3.5; horizontal gap= 23.0; vertical offset=  5.3; horizontal offset= -14.5
# OH Mirror Coating: Pt
# White beam filter: 140um PyC
# Crystal cut: Si(311)
# PostDCM slits:  vertical gap= 18.0; horizontal gap= 28.0; vertical offset= -9.1; horizontal offset= -16.5
# Experimental slits:  vertical gap= 28.6; horizontal gap= 45.0; vertical offset=  5.7; horizontal offset= -17.5
# HR Mirror : out; Y: 37.8; Pitch:  0.3; Coating: Pt
# Mirror 2: Pitch:  2.3; Height: -6.4; Yaw: -1.6; Bend:  0.8;
# I0 Stanford sensitivity: 20 nA/V Offsets: 20 pA
# It Stanford sensitivity: 100 nA/V Offsets: 1 pA
# Iref Stanford sensitivity: 20 nA/V Offsets: 1 pA
#
# Ascii output file name: 'Andrea_Sn//ascii/262924_PtSn_OCA_H2_Abu_3.dat'
# Nexus output file: '/dls/b18/data/2016/sp10306-9/Andrea_Sn//nexus/262924_PtSn_OCA_H2_Abu_3.nxs'
# XML folder and files:
# /dls/b18/data/2016/sp10306-9/xml/Andrea_Sn/
# QEXAFS_Parameters
# Sample_Parameters
# Detector_Parameters
# Output_Parameters
# The contents of these files are also stored in the nexus file.
#
# Sample name: PtSn_OCA_H2_Abu
# Sample description: default sample description
# Additional comments: default additional comments
# command: qexafs_energy 29000.0 30050.0 2094 263.53 qexafs_counterTimer01
#
#
# qexafs_energy	   time	       I0	       It	     Iref	   lnI0It	 lnItIref
     29000.24	0.15060	2414131.0	2228938.0	4614545.0	0.0798141	-0.727688
     29000.73	0.19656	3140942.0	2900428.0	6004789.0	0.0796644	-0.727699
     29001.21	0.10636	1703846.0	1573003.0	3256509.0	0.0799015	-0.727669
     29001.69	0.087911	1404610.0	1297005.0	2685144.0	0.0797019	-0.727677
     29002.18	0.12455	1990649.0	1838359.0	3805723.0	0.0795874	-0.727633
     29002.66	0.12877	2066067.0	1908007.0	3949374.0	0.0795876	-0.727498
     29003.14	0.12942	2076034.0	1916964.0	3968223.0	0.0797167	-0.727576
     29003.63	0.12953	2071600.0	1913202.0	3961260.0	0.0795430	-0.727784
     29004.11	0.12687	2030454.0	1875435.0	3882369.0	0.0794188	-0.727605
     29004.59	0.13077	2091472.0	1931649.0	3998952.0	0.0794941	-0.727658
     29005.08	0.11911	1910019.0	1763831.0	3651668.0	0.0796250	-0.727696
     29005.56	0.12297	1967787.0	1817414.0	3763441.0	0.0794949	-0.727919
     29006.05	0.12588	2013652.0	1859566.0	3850113.0	0.0796069	-0.727759
     29006.53	0.12715	2040232.0	1884483.0	3901023.0	0.0794100	-0.727585
     29007.01	0.12288	1967892.0	1817556.0	3762888.0	0.0794702	-0.727694
     29007.50	0.12659	2029126.0	1874357.0	3879757.0	0.0793395	-0.727507
     29007.98	0.12965	2081428.0	1922717.0	3980812.0	0.0793149	-0.727747
     29008.46	0.13058	2097026.0	1936710.0	4009713.0	0.0795295	-0.727729
     29008.95	0.099667	1594241.0	1472580.0	3049486.0	0.0793818	-0.727957
     29009.43	0.11878	1901280.0	1756598.0	3636919.0	0.0791484	-0.727758
     29009.92	0.12751	2045604.0	1889887.0	3911071.0	0.0791761	-0.727294
     29010.40	0.11587	1861262.0	1719220.0	3558528.0	0.0793841	-0.727476
     29010.88	0.12130	1946331.0	1798250.0	3722751.0	0.0791321	-0.727649
     29011.37	0.13796	2218850.0	2050114.0	4244645.0	0.0790936	-0.727763
     29011.85	0.12684	2044242.0	1888640.0	3909729.0	0.0791701	-0.727611
     29012.34	0.12656	2038764.0	1883529.0	3900163.0	0.0791966	-0.727871
     29012.82	0.11922	1919888.0	1773620.0	3672711.0	0.0792442	-0.727907
     29013.30	0.13252	2137812.0	1975035.0	4089576.0	0.0791968	-0.727855
     29013.79	0.12892	2074725.0	1916771.0	3969037.0	0.0791866	-0.727881
     29014.27	0.11690	1884295.0	1741124.0	3605316.0	0.0790229	-0.727879
     29014.76	0.13462	2167200.0	2002635.0	4145772.0	0.0789722	-0.727625
     29015.24	0.13030	2094887.0	1935713.0	4007655.0	0.0790239	-0.727731
     29015.72	0.11877	1912984.0	1767549.0	3659503.0	0.0790705	-0.727734
     29016.21	0.12421	1999582.0	1847965.0	3825791.0	0.0788531	-0.727680
     29016.69	0.11957	1924495.0	1778358.0	3682057.0	0.0789731	-0.727781
     29017.18	0.12758	2053892.0	1898033.0	3929942.0	0.0789184	-0.727807
     29017.66	0.12812	2061009.0	1904681.0	3943178.0	0.0788811	-0.727672
     29018.14	0.12138	1951728.0	1803840.0	3734395.0	0.0787974	-0.727668
     29018.63	0.14237	2289375.0	2115984.0	4380533.0	0.0787589	-0.727650
     29019.11	0.12556	2022583.0	1869248.0	3870112.0	0.0788392	-0.727747
     29019.60	0.12509	2013719.0	1861112.0	3853009.0	0.0788091	-0.727680
     29020.08	0.13365	2150510.0	1987319.0	4113577.0	0.0789185	-0.727506
     29020.57	0.12969	2082311.0	1924732.0	3985207.0	0.0786916	-0.727803
     29021.05	0.13007	2095529.0	1936753.0	4010086.0	0.0787932	-0.727800
     29021.53	0.12268	1969469.0	1820335.0	3768870.0	0.0787434	-0.727755
     29022.02	0.12842	2068891.0	1912173.0	3958801.0	0.0787724	-0.727701
     29022.50	0.13392	2154744.0	1991249.0	4122256.0	0.0789098	-0.727639
     29022.99	0.13077	2101630.0	1942899.0	4022586.0	0.0785320	-0.727744
     29023.47	0.14628	2353757.0	2175549.0	4504925.0	0.0787317	-0.727890
     29023.96	0.10038	1613440.0	1491436.0	3088279.0	0.0786291	-0.727875
     29024.44	0.11637	1871043.0	1729523.0	3580728.0	0.0786504	-0.727720
     29024.92	0.12049	1936657.0	1790097.0	3705984.0	0.0786935	-0.727679
     29025.41	0.10960	1762711.0	1629544.0	3373770.0	0.0785527	-0.727731
     29025.89	0.12893	2072940.0	1916399.0	3966695.0	0.0785200	-0.727485
     29026.38	0.12156	1955523.0	1807820.0	3742679.0	0.0785360	-0.727680
     29026.86	0.11596	1868067.0	1727105.0	3576037.0	0.0784576	-0.727809
     29027.35	0.12513	2014409.0	1863036.0	3856929.0	0.0781184	-0.727664
     29027.83	0.10995	1768479.0	1635123.0	3385460.0	0.0784018	-0.727772
     29028.32	0.10658	1707962.0	1579349.0	3269592.0	0.0782881	-0.727652
     29028.80	0.10473	1680792.0	1554236.0	3217416.0	0.0782810	-0.727594
     29029.28	0.13187	2122003.0	1962386.0	4062446.0	0.0781994	-0.727624
     29029.77	0.12293	1976553.0	1828016.0	3785025.0	0.0781232	-0.727821
     29030.25	0.15206	2447689.0	2262753.0	4685867.0	0.0785621	-0.727969
     29030.74	0.13985	2250078.0	2080393.0	4307811.0	0.0784081	-0.727873
     29031.22	0.10576	1702606.0	1574208.0	3259521.0	0.0784077	-0.727828
     29031.71	0.11729	1888230.0	1745771.0	3614609.0	0.0784436	-0.727787
     29032.19	0.12310	1977529.0	1829292.0	3787741.0	0.0779191	-0.727841
     29032.68	0.12447	2002387.0	1851769.0	3834383.0	0.0781986	-0.727867
     29033.16	0.14123	2270236.0	2099533.0	4347009.0	0.0781689	-0.727773
     29033.65	0.15179	2441995.0	2258726.0	4676940.0	0.0780144	-0.727843
     29034.13	0.14479	2326369.0	2151258.0	4453616.0	0.0782559	-0.727664
     29034.62	0.13098	2103118.0	1945028.0	4026394.0	0.0781446	-0.727595
     29035.10	0.090240	1451904.0	1342672.0	2779899.0	0.0782141	-0.727753
     29035.58	0.11409	1832553.0	1694726.0	3508808.0	0.0781890	-0.727755
     29036.07	0.13804	2219449.0	2052841.0	4250925.0	0.0780343	-0.727912
     29036.55	0.12510	2011715.0	1861040.0	3852822.0	0.0778521	-0.727670
     29037.04	0.14580	2341318.0	2165693.0	4483461.0	0.0779736	-0.727655
     29037.52	0.13095	2106064.0	1948286.0	4033896.0	0.0778708	-0.727783
     29038.01	0.13768	2212914.0	2047124.0	4238556.0	0.0778743	-0.727787
     29038.49	0.13091	2099921.0	1942981.0	4022869.0	0.0776763	-0.727772
     29038.98	0.13425	2156596.0	1995642.0	4131464.0	0.0775652	-0.727666
     29039.46	0.12095	1934966.0	1790131.0	3706385.0	0.0778010	-0.727768
     29039.95	0.13054	2090390.0	1934150.0	4004009.0	0.0776827	-0.727628
     29040.43	0.13498	2160239.0	1998737.0	4138179.0	0.0777034	-0.727740
     29040.92	0.12061	1936416.0	1791483.0	3709096.0	0.0777951	-0.727744
     29041.40	0.12981	2085328.0	1929541.0	3994563.0	0.0776440	-0.727652
     29041.89	0.12731	2040032.0	1887069.0	3906738.0	0.0779407	-0.727678
     29042.37	0.11882	1906073.0	1763519.0	3651117.0	0.0777339	-0.727722
     29042.86	0.13073	2097233.0	1940646.0	4016625.0	0.0775979	-0.727421
     29043.34	0.12123	1944877.0	1799528.0	3725545.0	0.0776743	-0.727689
     29043.83	0.12398	1986525.0	1838520.0	3806041.0	0.0774260	-0.727629
     29044.31	0.13035	2088920.0	1932831.0	4001355.0	0.0776614	-0.727647
     29044.80	0.13172	2108426.0	1951106.0	4038996.0	0.0775453	-0.727600
     29045.28	0.12211	1961743.0	1816042.0	3758746.0	0.0771740	-0.727426
     29045.77	0.12059	1932422.0	1788535.0	3702417.0	0.0773773	-0.727589
     29046.25	0.11534	1852108.0	1713965.0	3548043.0	0.0775150	-0.727587
     29046.74	0.11879	1907177.0	1765229.0	3653731.0	0.0773437	-0.727468
     29047.22	0.12263	1962481.0	1816215.0	3760395.0	0.0774548	-0.727769
     29047.71	0.11698	1876815.0	1736811.0	3595625.0	0.0775255	-0.727667
     29048.19	0.13047	2089801.0	1934123.0	4003637.0	0.0774149	-0.727549
     29048.68	0.12383	1984362.0	1836366.0	3800745.0	0.0775088	-0.727408
     29049.16	0.11832	1895176.0	1754175.0	3630975.0	0.0773130	-0.727503
     29049.65	0.12632	2024499.0	1873898.0	3878978.0	0.0773015	-0.727551
     29050.13	0.13042	2089200.0	1933591.0	4002379.0	0.0774023	-0.727510
     29050.62	0.13495	2163486.0	2002955.0	4146085.0	0.0770972	-0.727541
     29051.10	0.12111	1938791.0	1794765.0	3714320.0	0.0771905	-0.727322
     29051.59	0.13745	2198750.0	2035834.0	4213441.0	0.0769835	-0.727374
     29052.08	0.11910	1907588.0	1765861.0	3654764.0	0.0772012	-0.727393
     29052.56	0.12463	1992855.0	1845160.0	3817967.0	0.0770023	-0.727152
     29053.05	0.11847	1894905.0	1753955.0	3629627.0	0.0772955	-0.727257
     29053.53	0.12621	2023055.0	1873221.0	3876676.0	0.0769493	-0.727319
     29054.02	0.12395	1984654.0	1837454.0	3802578.0	0.0770637	-0.727298
     29054.50	0.12669	2025130.0	1875381.0	3880455.0	0.0768221	-0.727141
     29054.99	0.12816	2055556.0	1903098.0	3938799.0	0.0770633	-0.727393
     29055.47	0.12674	2030946.0	1880486.0	3891497.0	0.0769714	-0.727264
     29055.96	0.12733	2032885.0	1882668.0	3895520.0	0.0767660	-0.727137
     29056.44	0.13370	2133575.0	1975370.0	4087508.0	0.0770433	-0.727180
     29056.93	0.12735	2040644.0	1889647.0	3909990.0	0.0768754	-0.727145
     29057.41	0.11953	1913895.0	1772486.0	3667471.0	0.0767574	-0.727119
     29057.90	0.13950	2233675.0	2068531.0	4279433.0	0.0768095	-0.726982
     29058.39	0.12739	2040199.0	1889404.0	3909607.0	0.0767859	-0.727175
     29058.87	0.12778	2045488.0	1894098.0	3919364.0	0.0768937	-0.727187
     29059.36	0.12657	2025493.0	1875579.0	3880861.0	0.0768957	-0.727140
     29059.84	0.12653	2021155.0	1871931.0	3873145.0	0.0766986	-0.727096
     29060.33	0.14023	2239058.0	2073859.0	4290832.0	0.0766441	-0.727070
     29060.81	0.10514	1683052.0	1558972.0	3225522.0	0.0765822	-0.727068
     29061.30	0.12041	1929656.0	1786845.0	3697033.0	0.0768903	-0.727079
     29061.78	0.12999	2081664.0	1928325.0	3989328.0	0.0765158	-0.726971
     29062.27	0.11977	1910876.0	1769965.0	3661441.0	0.0766020	-0.726897
     29062.76	0.13268	2121424.0	1964957.0	4064316.0	0.0766172	-0.726775
     29063.24	0.12072	1932640.0	1790402.0	3703181.0	0.0764468	-0.726752
     29063.73	0.13713	2195679.0	2033639.0	4207198.0	0.0766645	-0.726970
     29064.21	0.13288	2122637.0	1966143.0	4067940.0	0.0765854	-0.727063
     29064.70	0.093839	1500121.0	1390091.0	2874755.0	0.0761766	-0.726598
     29065.18	0.10568	1688468.0	1563793.0	3235182.0	0.0767073	-0.726971
     29065.67	0.096218	1536864.0	1423336.0	2944325.0	0.0767406	-0.726876
     29066.16	0.12222	1951725.0	1808191.0	3739952.0	0.0763867	-0.726746
     29066.64	0.11652	1863495.0	1726075.0	3570868.0	0.0766037	-0.726959
     29067.13	0.13499	2150495.0	1991908.0	4119714.0	0.0766051	-0.726691
     29067.61	0.13867	2219292.0	2055530.0	4250745.0	0.0766545	-0.726561
     29068.10	0.14561	2328234.0	2157241.0	4461957.0	0.0762799	-0.726757
     29068.59	0.085703	1363899.0	1263740.0	2613964.0	0.0762719	-0.726792
     29069.07	0.13156	2102175.0	1947717.0	4028515.0	0.0763146	-0.726740
     29069.56	0.11027	1761888.0	1632285.0	3374905.0	0.0764051	-0.726386
     29070.04	0.15076	2404761.0	2228757.0	4608922.0	0.0760065	-0.726550
     29070.53	0.11870	1896313.0	1757228.0	3634955.0	0.0761739	-0.726859
     29071.01	0.14261	2275157.0	2108804.0	4360741.0	0.0759281	-0.726521
     29071.50	0.16153	2578249.0	2389477.0	4940391.0	0.0760360	-0.726370
     29071.99	0.13783	2199728.0	2038551.0	4214876.0	0.0760945	-0.726381
     29072.47	0.089513	1430760.0	1325808.0	2740824.0	0.0761837	-0.726237
     29072.96	0.11070	1764263.0	1634992.0	3379625.0	0.0760951	-0.726127
     29073.44	0.13469	2150485.0	1993272.0	4120855.0	0.0759159	-0.726283
     29073.93	0.14044	2241281.0	2077246.0	4294077.0	0.0760046	-0.726194
     29074.42	0.11955	1908498.0	1768950.0	3656746.0	0.0759304	-0.726188
     29074.90	0.14824	2363981.0	2190517.0	4528248.0	0.0762095	-0.726198
     29075.39	0.14997	2389878.0	2214950.0	4579069.0	0.0760125	-0.726266
     29075.87	0.14462	2309912.0	2140735.0	4424586.0	0.0760602	-0.726027
     29076.36	0.10977	1749428.0	1621492.0	3351368.0	0.0759422	-0.726022
     29076.85	0.11502	1837576.0	1703086.0	3520321.0	0.0760054	-0.726110
     29077.33	0.12965	2069270.0	1918190.0	3964636.0	0.0758139	-0.726032
     29077.82	0.13475	2149169.0	1991737.0	4116697.0	0.0760741	-0.726044
     29078.31	0.13394	2139155.0	1982598.0	4096240.0	0.0760028	-0.725661
     29078.79	0.11633	1854292.0	1719002.0	3552975.0	0.0757591	-0.726041
     29079.28	0.14291	2280438.0	2113440.0	4366639.0	0.0760506	-0.725677
     29079.76	0.11816	1885582.0	1747594.0	3611100.0	0.0759965	-0.725772
     29080.25	0.12430	1982576.0	1837590.0	3796873.0	0.0759421	-0.725723
     29080.74	0.11923	1897596.0	1758790.0	3632556.0	0.0759617	-0.725310
     29081.22	0.12605	2012911.0	1866074.0	3855347.0	0.0757452	-0.725624
     29081.71	0.12412	1981378.0	1836849.0	3794185.0	0.0757410	-0.725418
     29082.20	0.13158	2099317.0	1946331.0	4019445.0	0.0756660	-0.725198
     29082.68	0.12362	1970501.0	1827002.0	3772476.0	0.0756115	-0.725055
     29083.17	0.12311	1955601.0	1812759.0	3743189.0	0.0758476	-0.725088
     29083.65	0.12205	1945638.0	1803666.0	3725403.0	0.0757687	-0.725354
     29084.14	0.11432	1821705.0	1688893.0	3487532.0	0.0756996	-0.725121
     29084.63	0.12255	1952469.0	1810120.0	3737137.0	0.0757016	-0.724927
     29085.11	0.11738	1872619.0	1736304.0	3586360.0	0.0755793	-0.725379
     29085.60	0.12692	2024701.0	1877030.0	3875122.0	0.0757313	-0.724886
     29086.09	0.13228	2110160.0	1956650.0	4038476.0	0.0755299	-0.724634
     29086.57	0.11503	1830230.0	1697457.0	3504429.0	0.0753104	-0.724896
     29087.06	0.12541	1998165.0	1853122.0	3824963.0	0.0753575	-0.724677
     29087.55	0.12556	2000231.0	1855011.0	3829319.0	0.0753720	-0.724796
     29088.03	0.11823	1885244.0	1748125.0	3607872.0	0.0755135	-0.724574
     29088.52	0.13956	2224819.0	2063396.0	4257925.0	0.0753224	-0.724429
     29089.01	0.12906	2059226.0	1909544.0	3940416.0	0.0754657	-0.724422
     29089.49	0.13273	2108471.0	1955040.0	4034784.0	0.0755524	-0.724542
     29089.98	0.12748	2026023.0	1878763.0	3876390.0	0.0754612	-0.724291
     29090.47	0.12997	2069426.0	1919427.0	3960416.0	0.0752446	-0.724322
     29090.95	0.12301	1955522.0	1812938.0	3740688.0	0.0757084	-0.724321
     29091.44	0.12025	1915371.0	1776235.0	3664935.0	0.0754154	-0.724315
     29091.93	0.12976	2067806.0	1917558.0	3954851.0	0.0754356	-0.723890
     29092.41	0.12424	1975212.0	1831715.0	3777374.0	0.0754230	-0.723776
     29092.90	0.13261	2112060.0	1958767.0	4039475.0	0.0753486	-0.723800
     29093.39	0.13035	2076301.0	1925655.0	3970515.0	0.0753218	-0.723630
     29093.87	0.12009	1907669.0	1769729.0	3649631.0	0.0750557	-0.723800
     29094.36	0.12908	2055214.0	1906528.0	3931439.0	0.0750962	-0.723722
     29094.85	0.13105	2084224.0	1933350.0	3985745.0	0.0751424	-0.723470
     29095.33	0.11997	1908316.0	1769632.0	3647802.0	0.0754496	-0.723353
     29095.82	0.12545	1994112.0	1849838.0	3812685.0	0.0751008	-0.723236
     29096.31	0.13797	2191373.0	2033312.0	4190962.0	0.0748623	-0.723264
     29096.79	0.13113	2085475.0	1934745.0	3987080.0	0.0750211	-0.723084
     29097.28	0.13026	2071319.0	1921382.0	3959496.0	0.0751409	-0.723072
     29097.77	0.13960	2222483.0	2061903.0	4247785.0	0.0749957	-0.722768
     29098.25	0.10041	1594430.0	1479253.0	3047762.0	0.0749791	-0.722870
     29098.74	0.14764	2348706.0	2179160.0	4489329.0	0.0749251	-0.722764
     29099.23	0.094575	1504280.0	1395283.0	2873855.0	0.0752171	-0.722557
     29099.71	0.12619	2007330.0	1862286.0	3835844.0	0.0750007	-0.722585
     29100.20	0.12535	1991956.0	1847925.0	3804322.0	0.0750537	-0.722074
     29100.69	0.12584	2000743.0	1855974.0	3821779.0	0.0751090	-0.722306
     29101.17	0.12225	1942781.0	1802400.0	3710105.0	0.0750013	-0.721941
     29101.66	0.13128	2084039.0	1934292.0	3981833.0	0.0745665	-0.722001
     29102.15	0.099469	1576398.0	1462976.0	3011195.0	0.0746698	-0.721864
     29102.64	0.12107	1916081.0	1778140.0	3658999.0	0.0747141	-0.721622
     29103.12	0.11022	1747115.0	1621482.0	3336590.0	0.0746253	-0.721609
     29103.61	0.11649	1846726.0	1713741.0	3526097.0	0.0747356	-0.721513
     29104.10	0.12387	1964561.0	1823192.0	3750377.0	0.0746800	-0.721268
     29104.58	0.12097	1916528.0	1778415.0	3658239.0	0.0747927	-0.721259
     29105.07	0.11363	1798626.0	1669542.0	3433469.0	0.0744737	-0.721022
     29105.56	0.12502	1981104.0	1838525.0	3779964.0	0.0746906	-0.720751
     29106.04	0.12072	1912282.0	1774263.0	3648410.0	0.0749122	-0.720906
     29106.53	0.12576	1988834.0	1846005.0	3794178.0	0.0745247	-0.720444
     29107.02	0.11799	1866756.0	1732526.0	3560992.0	0.0746217	-0.720459
     29107.51	0.12614	1998213.0	1854611.0	3811442.0	0.0745783	-0.720333
     29107.99	0.13604	2156387.0	2001414.0	4113372.0	0.0745802	-0.720389
     29108.48	0.13037	2068208.0	1919717.0	3944377.0	0.0745048	-0.720113
     29108.97	0.14321	2273303.0	2109955.0	4334107.0	0.0745672	-0.719849
     29109.46	0.12621	2001424.0	1857712.0	3816050.0	0.0745133	-0.719870
     29109.94	0.13205	2091364.0	1941607.0	3986127.0	0.0743005	-0.719304
     29110.43	0.12592	1996640.0	1853017.0	3803931.0	0.0746506	-0.719220
     29110.92	0.11994	1892700.0	1757070.0	3606196.0	0.0743567	-0.719006
     29111.40	0.12814	2028453.0	1882838.0	3864446.0	0.0744932	-0.719038
     29111.89	0.12656	1996444.0	1853134.0	3802556.0	0.0744893	-0.718795
     29112.38	0.13150	2083544.0	1933859.0	3967237.0	0.0745528	-0.718552
     29112.87	0.14377	2277206.0	2114283.0	4336596.0	0.0742335	-0.718374
     29113.35	0.12769	2011152.0	1866867.0	3828797.0	0.0744461	-0.718289
     29113.84	0.14846	2345243.0	2176888.0	4463420.0	0.0744927	-0.718019
     29114.33	0.13650	2160689.0	2006356.0	4112596.0	0.0741070	-0.717734
     29114.82	0.12755	2009963.0	1865819.0	3824062.0	0.0744162	-0.717613
     29115.30	0.12209	1937237.0	1798693.0	3686031.0	0.0742024	-0.717490
     29115.79	0.13407	2128395.0	1975833.0	4047581.0	0.0743781	-0.717129
     29116.28	0.13065	2070729.0	1922572.0	3937723.0	0.0742368	-0.716939
     29116.77	0.12737	2018856.0	1874332.0	3838209.0	0.0742787	-0.716754
     29117.25	0.13288	2106653.0	1956121.0	4004686.0	0.0741370	-0.716502
     29117.74	0.11815	1873607.0	1739697.0	3559844.0	0.0741545	-0.716006
     29118.23	0.12573	1992077.0	1849825.0	3785660.0	0.0740868	-0.716129
     29118.72	0.12402	1958312.0	1818283.0	3719400.0	0.0741902	-0.715670
     29119.20	0.11736	1861530.0	1728251.0	3534582.0	0.0742888	-0.715485
     29119.69	0.13027	2066138.0	1918369.0	3923210.0	0.0742058	-0.715435
     29120.18	0.13071	2072765.0	1924239.0	3933963.0	0.0743529	-0.715117
     29120.67	0.13528	2146835.0	1992795.0	4071859.0	0.0744565	-0.714561
     29121.15	0.11313	1792767.0	1664650.0	3400856.0	0.0741453	-0.714412
     29121.64	0.11632	1840067.0	1708270.0	3489616.0	0.0743208	-0.714311
     29122.13	0.12786	2026245.0	1880992.0	3841409.0	0.0743850	-0.714040
     29122.62	0.11539	1830551.0	1699871.0	3470294.0	0.0740646	-0.713687
     29123.10	0.12442	1973251.0	1832374.0	3739049.0	0.0740700	-0.713219
     29123.59	0.11391	1806434.0	1677991.0	3423479.0	0.0737575	-0.713060
     29124.08	0.12990	2059134.0	1911755.0	3899466.0	0.0742638	-0.712818
     29124.57	0.12201	1928879.0	1791262.0	3652627.0	0.0740186	-0.712526
     29125.06	0.12517	1978377.0	1837625.0	3745838.0	0.0738028	-0.712171
     29125.54	0.11542	1828337.0	1697622.0	3459636.0	0.0741784	-0.711935
     29126.03	0.11679	1849643.0	1717541.0	3499443.0	0.0740990	-0.711710
     29126.52	0.12736	2015429.0	1871636.0	3811609.0	0.0740192	-0.711238
     29127.01	0.13467	2129976.0	1978575.0	4028136.0	0.0737338	-0.710927
     29127.49	0.12379	1957370.0	1818189.0	3700294.0	0.0737608	-0.710571
     29127.98	0.13537	2145382.0	1992749.0	4054235.0	0.0738025	-0.710247
     29128.47	0.12189	1927307.0	1790131.0	3640193.0	0.0738349	-0.709748
     29128.96	0.13242	2096017.0	1947023.0	3957713.0	0.0737373	-0.709365
     29129.45	0.12580	1991280.0	1849254.0	3758696.0	0.0739953	-0.709290
     29129.93	0.12724	1999731.0	1857415.0	3773390.0	0.0738269	-0.708788
     29130.42	0.12115	1916630.0	1780019.0	3613924.0	0.0739444	-0.708170
     29130.91	0.12092	1911111.0	1774543.0	3602608.0	0.0741418	-0.708115
     29131.40	0.12176	1927830.0	1790208.0	3632059.0	0.0740632	-0.707468
     29131.89	0.12450	1969109.0	1828770.0	3708320.0	0.0739375	-0.706935
     29132.37	0.13097	2071307.0	1923405.0	3898831.0	0.0740828	-0.706580
     29132.86	0.12177	1917771.0	1780830.0	3608598.0	0.0740840	-0.706240
     29133.35	0.13058	2063619.0	1916502.0	3882260.0	0.0739596	-0.705916
     29133.84	0.12889	2036595.0	1891697.0	3830499.0	0.0738050	-0.705521
     29134.33	0.11998	1897052.0	1762099.0	3565427.0	0.0737954	-0.704778
     29134.81	0.13155	2079262.0	1931387.0	3906710.0	0.0737746	-0.704457
     29135.30	0.13160	2079477.0	1931721.0	3905420.0	0.0737051	-0.703954
     29135.79	0.13273	2096049.0	1946915.0	3934255.0	0.0738081	-0.703475
     29136.28	0.12701	2004290.0	1861596.0	3760439.0	0.0738557	-0.703102
     29136.77	0.13284	2098476.0	1949199.0	3934781.0	0.0737928	-0.702437
     29137.25	0.12581	1984949.0	1843796.0	3720154.0	0.0737667	-0.701939
     29137.74	0.12268	1938379.0	1800249.0	3630314.0	0.0739271	-0.701394
     29138.23	0.13083	2066735.0	1919909.0	3869014.0	0.0736923	-0.700722
     29138.72	0.12134	1916355.0	1779900.0	3585052.0	0.0738678	-0.700216
     29139.21	0.12805	2025237.0	1880707.0	3786258.0	0.0740390	-0.699730
     29139.70	0.11973	1883782.0	1750189.0	3520423.0	0.0735577	-0.698857
     29140.18	0.12372	1952929.0	1813912.0	3647671.0	0.0738445	-0.698603
     29140.67	0.12648	1988857.0	1847230.0	3712119.0	0.0738729	-0.697916
     29141.16	0.13246	2090858.0	1942410.0	3900369.0	0.0736450	-0.697142
     29141.65	0.10135	1601368.0	1487550.0	2985650.0	0.0737278	-0.696687
     29142.14	0.11903	1880254.0	1746613.0	3502675.0	0.0737284	-0.695848
     29142.63	0.12819	2024903.0	1880707.0	3768931.0	0.0738740	-0.695144
     29143.11	0.11318	1786935.0	1659901.0	3323730.0	0.0737439	-0.694330
     29143.60	0.11339	1787377.0	1660059.0	3322803.0	0.0738960	-0.693956
     29144.09	0.12010	1895786.0	1760688.0	3521302.0	0.0739289	-0.693126
     29144.58	0.12207	1923914.0	1786967.0	3571170.0	0.0738419	-0.692374
     29145.07	0.10860	1710079.0	1588318.0	3171318.0	0.0738640	-0.691472
     29145.56	0.11654	1841253.0	1710433.0	3412178.0	0.0736998	-0.690604
     29146.04	0.12151	1919717.0	1783219.0	3554443.0	0.0737576	-0.689778
     29146.53	0.12706	2006158.0	1863574.0	3712091.0	0.0737253	-0.689099
     29147.02	0.13954	2201372.0	2045311.0	4070289.0	0.0735309	-0.688164
     29147.51	0.12023	1897154.0	1762027.0	3503208.0	0.0738900	-0.687214
     29148.00	0.12271	1934814.0	1797646.0	3570848.0	0.0735332	-0.686325
     29148.49	0.13457	2123830.0	1972801.0	3916168.0	0.0737667	-0.685659
     29148.98	0.13595	2142962.0	1990027.0	3945681.0	0.0740408	-0.684473
     29149.46	0.12650	1993138.0	1851038.0	3666116.0	0.0739637	-0.683386
     29149.95	0.16814	2652418.0	2463191.0	4873405.0	0.0740140	-0.682335
     29150.44	0.097413	1529232.0	1420293.0	2806973.0	0.0739025	-0.681243
     29150.93	0.12189	1918691.0	1782123.0	3519134.0	0.0738378	-0.680410
     29151.42	0.12164	1915898.0	1779282.0	3508789.0	0.0739765	-0.679061
     29151.91	0.12222	1926922.0	1789603.0	3524977.0	0.0739301	-0.677880
     29152.40	0.13187	2081901.0	1933761.0	3804009.0	0.0738146	-0.676589
     29152.88	0.13114	2055179.0	1908310.0	3749989.0	0.0741449	-0.675535
     29153.37	0.14123	2223549.0	2065310.0	4052503.0	0.0738242	-0.674054
     29153.86	0.16528	2605263.0	2419819.0	4741936.0	0.0738409	-0.672753
     29154.35	0.10315	1626103.0	1509791.0	2954968.0	0.0742151	-0.671517
     29154.84	0.12866	2027063.0	1882681.0	3679586.0	0.0738911	-0.670103
     29155.33	0.13222	2084846.0	1935891.0	3777144.0	0.0741273	-0.668400
     29155.82	0.13273	2088549.0	1939229.0	3778285.0	0.0741791	-0.666980
     29156.31	0.12903	2032248.0	1886995.0	3670782.0	0.0741570	-0.665419
     29156.79	0.12995	2046503.0	1900650.0	3691031.0	0.0739365	-0.663710
     29157.28	0.12130	1911428.0	1774403.0	3439768.0	0.0743866	-0.661940
     29157.77	0.12964	2039771.0	1893580.0	3665575.0	0.0743683	-0.660516
     29158.26	0.13227	2083259.0	1934185.0	3736669.0	0.0742474	-0.658509
     29158.75	0.12059	1895237.0	1759569.0	3392733.0	0.0742750	-0.656567
     29159.24	0.11884	1871674.0	1737445.0	3343600.0	0.0744176	-0.654632
     29159.73	0.12814	2014626.0	1870394.0	3591940.0	0.0742845	-0.652543
     29160.22	0.12413	1955025.0	1814378.0	3477452.0	0.0746603	-0.650557
     29160.71	0.13207	2071224.0	1922589.0	3676977.0	0.0744670	-0.648418
     29161.19	0.12938	2039302.0	1892560.0	3610688.0	0.0746772	-0.645968
     29161.68	0.12077	1900996.0	1764621.0	3357951.0	0.0744420	-0.643395
     29162.17	0.12746	2004980.0	1861048.0	3532919.0	0.0744943	-0.640985
     29162.66	0.12610	1979805.0	1837612.0	3478986.0	0.0745315	-0.638274
     29163.15	0.12734	2005029.0	1860946.0	3512251.0	0.0745736	-0.635172
     29163.64	0.11352	1786976.0	1658194.0	3121161.0	0.0747957	-0.632476
     29164.13	0.11885	1871025.0	1736328.0	3257225.0	0.0747139	-0.629103
     29164.62	0.11990	1883539.0	1747737.0	3268664.0	0.0748306	-0.626060
     29165.11	0.11578	1818200.0	1686966.0	3143902.0	0.0749154	-0.622533
     29165.60	0.12653	1988528.0	1844564.0	3425294.0	0.0751517	-0.618944
     29166.09	0.11294	1778066.0	1649392.0	3051729.0	0.0751195	-0.615302
     29166.57	0.13284	2085440.0	1934260.0	3564873.0	0.0752550	-0.611404
     29167.06	0.13778	2162952.0	2006089.0	3680671.0	0.0752869	-0.606908
     29167.55	0.12302	1930807.0	1790442.0	3271396.0	0.0754755	-0.602754
     29168.04	0.12494	1956516.0	1814023.0	3297694.0	0.0756183	-0.597676
     29168.53	0.13633	2142447.0	1985929.0	3591811.0	0.0758618	-0.592570
     29169.02	0.11640	1831201.0	1697102.0	3053115.0	0.0760499	-0.587240
     29169.51	0.13192	2071966.0	1920133.0	3434863.0	0.0761035	-0.581583
     29170.00	0.12980	2032944.0	1883520.0	3349093.0	0.0763426	-0.575547
     29170.49	0.11026	1731996.0	1604896.0	2834650.0	0.0762155	-0.568860
     29170.98	0.13779	2164534.0	2005053.0	3516728.0	0.0765346	-0.561861
     29171.47	0.11939	1875489.0	1736858.0	3023466.0	0.0767917	-0.554326
     29171.96	0.13114	2060065.0	1907441.0	3292397.0	0.0769750	-0.545853
     29172.45	0.11887	1862136.0	1723272.0	2949270.0	0.0774994	-0.537333
     29172.94	0.13253	2081288.0	1926219.0	3264899.0	0.0774279	-0.527670
     29173.42	0.12627	1977301.0	1829305.0	3068880.0	0.0777967	-0.517377
     29173.91	0.12960	2028167.0	1875927.0	3110926.0	0.0780295	-0.505817
     29174.40	0.13544	2128051.0	1967672.0	3224084.0	0.0783554	-0.493798
     29174.89	0.12394	1943694.0	1796855.0	2906510.0	0.0785524	-0.480915
     29175.38	0.12981	2029572.0	1875853.0	2992555.0	0.0787614	-0.467064
     29175.87	0.12127	1903389.0	1758125.0	2759607.0	0.0793881	-0.450840
     29176.36	0.13056	2044476.0	1887459.0	2912912.0	0.0799100	-0.433922
     29176.85	0.13383	2093281.0	1931938.0	2923262.0	0.0802090	-0.414176
     29177.34	0.13201	2071309.0	1910212.0	2830312.0	0.0809665	-0.393173
     29177.83	0.11788	1850216.0	1705292.0	2467590.0	0.0815660	-0.369506
     29178.32	0.12499	1953224.0	1798459.0	2537419.0	0.0825512	-0.344217
     29178.81	0.12209	1916959.0	1764203.0	2414351.0	0.0830410	-0.313731
     29179.30	0.11930	1872232.0	1721922.0	2282681.0	0.0836902	-0.281910
     29179.79	0.12944	2031498.0	1866249.0	2383053.0	0.0848429	-0.244452
     29180.28	0.13033	2045770.0	1877750.0	2302655.0	0.0857000	-0.203989
     29180.77	0.12155	1903685.0	1744700.0	2040005.0	0.0872089	-0.156370
     29181.26	0.11204	1753931.0	1605753.0	1786802.0	0.0882667	-0.106835
     29181.75	0.11238	1763167.0	1611513.0	1692633.0	0.0899381	-0.0491118
     29182.24	0.11647	1823481.0	1663839.0	1647009.0	0.0916197	0.0101667
     29182.73	0.11632	1826760.0	1663864.0	1542480.0	0.0934013	0.0757511
     29183.22	0.12010	1881383.0	1710393.0	1474755.0	0.0952840	0.148231
     29183.71	0.10803	1692086.0	1535098.0	1234960.0	0.0973679	0.217556
     29184.20	0.12424	1948522.0	1763185.0	1311608.0	0.0999493	0.295868
     29184.68	0.12826	2006023.0	1810759.0	1249565.0	0.102408	0.370951
     29185.17	0.11904	1859117.0	1674321.0	1071346.0	0.104694	0.446492
     29185.66	0.12141	1900676.0	1707353.0	1011607.0	0.107265	0.523404
     29186.15	0.11709	1835625.0	1644823.0	910131.0	0.109752	0.591800
     29186.64	0.13796	2160292.0	1931259.0	1004517.0	0.112071	0.653665
     29187.13	0.12665	1952874.0	1741207.0	856861.0	0.114724	0.709058
     29187.62	0.13783	2129757.0	1894771.0	885550.0	0.116910	0.760644
     29188.11	0.13193	2047124.0	1817229.0	815158.0	0.119123	0.801686
     29188.60	0.12992	2022890.0	1791808.0	778236.0	0.121302	0.833951
     29189.09	0.10978	1713133.0	1514917.0	643367.0	0.122963	0.856401
     29189.58	0.14168	2215555.0	1955160.0	817010.0	0.125031	0.872576
     29190.07	0.11567	1807456.0	1592888.0	660490.0	0.126372	0.880322
     29190.56	0.14241	2231072.0	1962806.0	813657.0	0.128107	0.880591
     29191.05	0.13105	2051206.0	1802150.0	750611.0	0.129448	0.875848
     29191.54	0.13618	2130635.0	1870082.0	785881.0	0.130438	0.866932
     29192.03	0.11873	1856568.0	1628422.0	692907.0	0.131118	0.854471
     29192.52	0.13417	2097616.0	1838597.0	792500.0	0.131799	0.841566
     29193.01	0.13633	2131798.0	1867888.0	818066.0	0.132157	0.825621
     29193.50	0.13227	2062480.0	1806798.0	803972.0	0.132353	0.809747
     29193.99	0.13211	2053461.0	1799559.0	814126.0	0.131985	0.793182
     29194.48	0.13350	2086082.0	1828127.0	839373.0	0.131996	0.778392
     29194.97	0.13699	2137848.0	1874643.0	873618.0	0.131381	0.763530
     29195.46	0.12447	1948978.0	1709896.0	807857.0	0.130873	0.749803
     29195.95	0.12750	1993799.0	1750290.0	837185.0	0.130260	0.737492
     29196.44	0.13437	2102138.0	1846480.0	893652.0	0.129674	0.725720
     29196.93	0.11716	1828117.0	1607781.0	786165.0	0.128432	0.715444
     29197.42	0.11456	1780209.0	1566671.0	772305.0	0.127778	0.707329
     29197.92	0.13032	2036743.0	1794192.0	891553.0	0.126797	0.699345
     29198.41	0.12762	1992503.0	1756693.0	879057.0	0.125959	0.692339
     29198.90	0.12195	1902921.0	1679259.0	844718.0	0.125037	0.687105
     29199.39	0.13650	2128823.0	1880346.0	950795.0	0.124113	0.681913
     29199.88	0.11651	1815824.0	1604716.0	814206.0	0.123593	0.678489
     29200.37	0.13068	2039778.0	1804211.0	917603.0	0.122718	0.676114
     29200.86	0.11565	1799107.0	1592636.0	811775.0	0.121900	0.673923
     29201.35	0.12430	1940914.0	1719163.0	877420.0	0.121321	0.672607
     29201.84	0.13044	2029679.0	1799223.0	918368.0	0.120523	0.672512
     29202.33	0.12336	1922407.0	1705137.0	869684.0	0.119933	0.673271
     29202.82	0.10968	1709692.0	1516961.0	773104.0	0.119604	0.674051
     29203.31	0.12705	1980497.0	1758255.0	894437.0	0.119026	0.675883
     29203.80	0.12425	1926067.0	1710675.0	868314.0	0.118592	0.678090
     29204.29	0.11569	1800945.0	1600084.0	810095.0	0.118255	0.680660
     29204.78	0.12510	1951759.0	1735162.0	875882.0	0.117630	0.683625
     29205.27	0.12195	1892833.0	1683648.0	847067.0	0.117112	0.686938
     29205.76	0.13119	2037653.0	1812085.0	909152.0	0.117321	0.689721
     29206.25	0.13076	2040310.0	1815005.0	907763.0	0.117014	0.692860
     29206.74	0.12910	2007728.0	1786724.0	890723.0	0.116620	0.696106
     29207.23	0.12290	1911278.0	1700668.0	845687.0	0.116751	0.698627
     29207.72	0.14269	2221784.0	1978101.0	980905.0	0.116173	0.701417
     29208.21	0.12157	1894123.0	1686395.0	834349.0	0.116163	0.703697
     29208.70	0.12613	1966877.0	1750856.0	864357.0	0.116342	0.705874
     29209.19	0.11757	1831762.0	1631140.0	804234.0	0.115999	0.707144
     29209.69	0.12281	1907135.0	1698018.0	835915.0	0.116140	0.708690
     29210.18	0.12406	1935009.0	1723375.0	848064.0	0.115827	0.709084
     29210.67	0.11591	1804495.0	1606858.0	790190.0	0.116000	0.709763
     29211.16	0.13923	2151954.0	1916364.0	941739.0	0.115947	0.710457
     29211.65	0.12150	1891837.0	1684771.0	828870.0	0.115919	0.709322
     29212.14	0.12843	1985519.0	1768311.0	870163.0	0.115855	0.709100
     29212.63	0.13510	2104514.0	1874213.0	923673.0	0.115896	0.707586
     29213.12	0.12481	1936027.0	1724253.0	851167.0	0.115844	0.705941
     29213.61	0.13250	2053874.0	1829025.0	904787.0	0.115945	0.703839
     29214.10	0.12871	2001127.0	1782110.0	883953.0	0.115912	0.701149
     29214.59	0.13212	2046387.0	1822112.0	906466.0	0.116080	0.698198
     29215.08	0.12716	1980659.0	1763576.0	880969.0	0.116086	0.694076
     29215.57	0.13497	2101221.0	1870887.0	937873.0	0.116106	0.690553
     29216.06	0.13223	2053379.0	1827854.0	920560.0	0.116344	0.685916
     29216.56	0.11160	1733117.0	1542656.0	780481.0	0.116416	0.681350
     29217.05	0.13112	2039297.0	1815310.0	922734.0	0.116349	0.676671
     29217.54	0.11722	1818852.0	1618705.0	826231.0	0.116579	0.672507
     29218.03	0.12674	1965474.0	1749240.0	896240.0	0.116552	0.668728
     29218.52	0.12118	1879914.0	1673077.0	860717.0	0.116562	0.664654
     29219.01	0.13058	2004050.0	1783341.0	920097.0	0.116682	0.661765
     29219.50	0.13380	2080441.0	1851615.0	958393.0	0.116522	0.658556
     29219.99	0.12545	1943906.0	1729659.0	896842.0	0.116775	0.656800
     29220.48	0.093200	1450958.0	1291404.0	670316.0	0.116494	0.655736
     29220.97	0.10265	1592658.0	1416922.0	735820.0	0.116917	0.655257
     29221.47	0.11674	1816777.0	1616500.0	839498.0	0.116801	0.655215
     29221.96	0.11346	1765971.0	1571586.0	815332.0	0.116615	0.656245
     29222.45	0.12324	1912834.0	1701910.0	881462.0	0.116835	0.657925
     29222.94	0.12793	1994051.0	1774925.0	916654.0	0.116410	0.660783
     29223.43	0.11809	1836160.0	1634017.0	842134.0	0.116635	0.662858
     29223.92	0.11228	1742700.0	1551127.0	796903.0	0.116454	0.666004
     29224.41	0.11214	1739580.0	1548381.0	792355.0	0.116434	0.669956
     29224.90	0.13831	2141942.0	1906258.0	972039.0	0.116571	0.673502
     29225.39	0.12924	2008275.0	1788027.0	908486.0	0.116163	0.677089
     29225.89	0.12760	1983846.0	1766318.0	893582.0	0.116140	0.681414
     29226.38	0.14266	2207313.0	1965345.0	990818.0	0.116108	0.684892
     29226.87	0.13365	2070438.0	1843781.0	926068.0	0.115942	0.688626
     29227.36	0.18049	2803463.0	2496828.0	1248526.0	0.115834	0.693057
     29227.85	0.086638	1332291.0	1186479.0	590884.0	0.115910	0.697126
     29228.34	0.12487	1936665.0	1724556.0	855676.0	0.115998	0.700833
     29228.83	0.11027	1716428.0	1528891.0	755676.0	0.115703	0.704685
     29229.32	0.13043	2025727.0	1804481.0	888518.0	0.115656	0.708473
     29229.81	0.13122	2030431.0	1808782.0	886887.0	0.115594	0.712691
     29230.31	0.13655	2118844.0	1887529.0	922159.0	0.115602	0.716306
     29230.80	0.13234	2055311.0	1830872.0	890644.0	0.115635	0.720603
     29231.29	0.16224	2512968.0	2238626.0	1084992.0	0.115602	0.724290
     29231.78	0.099171	1533421.0	1365992.0	659378.0	0.115620	0.728339
     29232.27	0.12216	1887222.0	1681382.0	808414.0	0.115490	0.732297
     29232.76	0.14029	2178760.0	1941092.0	930162.0	0.115505	0.735647
     29233.25	0.12718	1969865.0	1755015.0	837973.0	0.115488	0.739247
     29233.75	0.14129	2187373.0	1948892.0	927830.0	0.115440	0.742168
     29234.24	0.12908	2005813.0	1786997.0	847910.0	0.115513	0.745517
     29234.73	0.16218	2507920.0	2234087.0	1057515.0	0.115621	0.747911
     29235.22	0.13837	2135924.0	1902294.0	898565.0	0.115839	0.750017
     29235.71	0.089434	1379834.0	1228587.0	579385.0	0.116098	0.751653
     29236.20	0.11469	1778926.0	1584333.0	745998.0	0.115846	0.753196
     29236.69	0.11683	1812680.0	1614387.0	759399.0	0.115851	0.754183
     29237.19	0.12983	2012290.0	1791652.0	842766.0	0.116135	0.754204
     29237.68	0.12024	1866470.0	1661821.0	781979.0	0.116135	0.753841
     29238.17	0.12875	1998730.0	1779581.0	837444.0	0.116134	0.753779
     29238.66	0.15468	2391191.0	2128739.0	1003170.0	0.116262	0.752365
     29239.15	0.11167	1729042.0	1539644.0	726431.0	0.116016	0.751163
     29239.64	0.10911	1689422.0	1503503.0	711438.0	0.116589	0.748265
     29240.14	0.11531	1776389.0	1581277.0	749237.0	0.116350	0.746933
     29240.63	0.11921	1845161.0	1642268.0	780795.0	0.116488	0.743521
     29241.12	0.13203	2046336.0	1821613.0	869056.0	0.116329	0.740070
     29241.61	0.11233	1723186.0	1533350.0	733585.0	0.116720	0.737267
     29242.10	0.11925	1838904.0	1636285.0	785528.0	0.116741	0.733828
     29242.59	0.12891	1989321.0	1770328.0	853177.0	0.116629	0.729953
     29243.09	0.11011	1697292.0	1510946.0	731242.0	0.116298	0.725747
     29243.58	0.12836	1990118.0	1771071.0	861086.0	0.116609	0.721145
     29244.07	0.12615	1955827.0	1740634.0	849840.0	0.116564	0.716957
     29244.56	0.12420	1924920.0	1712910.0	839377.0	0.116691	0.713289
     29245.05	0.13767	2123475.0	1889686.0	929453.0	0.116643	0.709570
     29245.55	0.13067	2001535.0	1781169.0	879538.0	0.116644	0.705628
     29246.04	0.12447	1913820.0	1702535.0	844135.0	0.116983	0.701561
     29246.53	0.14619	2249930.0	2002103.0	996167.0	0.116701	0.698038
     29247.02	0.11044	1702387.0	1514748.0	756657.0	0.116782	0.694094
     29247.51	0.12704	1961076.0	1744725.0	874692.0	0.116896	0.690480
     29248.00	0.11912	1844354.0	1640670.0	825419.0	0.117024	0.686969
     29248.50	0.11809	1827313.0	1625714.0	819923.0	0.116899	0.684492
     29248.99	0.13534	2098989.0	1867458.0	944749.0	0.116878	0.681414
     29249.48	0.12647	1956686.0	1740942.0	883372.0	0.116826	0.678435
     29249.97	0.12543	1938293.0	1724681.0	877000.0	0.116766	0.676290
     29250.46	0.13213	2044924.0	1818910.0	927256.0	0.117123	0.673763
     29250.96	0.12271	1895031.0	1685794.0	860563.0	0.116999	0.672405
     29251.45	0.12421	1922585.0	1710067.0	874707.0	0.117138	0.670399
     29251.94	0.13268	2051742.0	1824638.0	934448.0	0.117308	0.669181
     29252.43	0.12505	1934657.0	1720558.0	881723.0	0.117281	0.668526
     29252.92	0.14459	2235644.0	1988084.0	1020070.0	0.117358	0.667300
     29253.42	0.11619	1797800.0	1598804.0	820509.0	0.117308	0.667086
     29253.91	0.15110	2341301.0	2081999.0	1068450.0	0.117378	0.667119
     29254.40	0.11333	1753614.0	1559523.0	800118.0	0.117299	0.667376
     29254.89	0.11826	1832095.0	1629133.0	835513.0	0.117412	0.667757
     29255.39	0.12411	1915848.0	1703985.0	873509.0	0.117191	0.668206
     29255.88	0.12605	1953255.0	1737168.0	889751.0	0.117241	0.669070
     29256.37	0.11997	1854306.0	1649528.0	843693.0	0.117021	0.670456
     29256.86	0.12631	1955465.0	1738969.0	888483.0	0.117336	0.671532
     29257.35	0.13110	2022656.0	1799102.0	917665.0	0.117124	0.673211
     29257.85	0.18196	2810456.0	2499943.0	1272988.0	0.117079	0.674901
     29258.34	0.11745	1814436.0	1613747.0	820078.0	0.117216	0.676915
     29258.83	0.093114	1437113.0	1278176.0	648270.0	0.117202	0.678882
     29259.32	0.10269	1589212.0	1413847.0	715287.0	0.116924	0.681386
     29259.82	0.095274	1475359.0	1312550.0	662393.0	0.116930	0.683868
     29260.31	0.10650	1646031.0	1464799.0	737182.0	0.116649	0.686639
     29260.80	0.15184	2349539.0	2090697.0	1049113.0	0.116722	0.689552
     29261.29	0.15273	2361061.0	2100997.0	1051179.0	0.116699	0.692500
     29261.79	0.13365	2068082.0	1840609.0	918292.0	0.116525	0.695336
     29262.28	0.087433	1351420.0	1203046.0	598215.0	0.116299	0.698662
     29262.77	0.079035	1220049.0	1086269.0	538171.0	0.116142	0.702328
     29263.26	0.12412	1918555.0	1708122.0	843820.0	0.116178	0.705211
     29263.75	0.12413	1916364.0	1706235.0	840148.0	0.116140	0.708466
     29264.25	0.13085	2023890.0	1802321.0	884347.0	0.115946	0.711981
     29264.74	0.14511	2241504.0	1996438.0	976098.0	0.115782	0.715557
     29265.23	0.14057	2161921.0	1925540.0	938922.0	0.115791	0.718229
     29265.72	0.12905	1990897.0	1773516.0	861966.0	0.115621	0.721503
     29266.22	0.12617	1950407.0	1737288.0	842050.0	0.115713	0.724241
     29266.71	0.11587	1791357.0	1596140.0	771049.0	0.115385	0.727592
     29267.20	0.11532	1782167.0	1588032.0	765307.0	0.115335	0.729974
     29267.70	0.12735	1965261.0	1751086.0	841759.0	0.115389	0.732498
     29268.19	0.13161	2031816.0	1810470.0	868222.0	0.115343	0.734894
     29268.68	0.13247	2046873.0	1824615.0	873004.0	0.114944	0.737184
     29269.17	0.12968	2004061.0	1786509.0	853051.0	0.114912	0.739199
     29269.67	0.14949	2309415.0	2059014.0	982383.0	0.114767	0.740001
     29270.16	0.12643	1952633.0	1740916.0	829700.0	0.114767	0.741103
     29270.65	0.12538	1936053.0	1726262.0	821782.0	0.114693	0.742239
     29271.14	0.13189	2038132.0	1817065.0	864546.0	0.114811	0.742773
     29271.64	0.14069	2172497.0	1937064.0	921268.0	0.114704	0.743178
     29272.13	0.12991	2004402.0	1787565.0	850320.0	0.114491	0.742997
     29272.62	0.13206	2038031.0	1817014.0	864737.0	0.114790	0.742524
     29273.11	0.12931	1993349.0	1778284.0	846544.0	0.114167	0.742242
     29273.61	0.13212	2033453.0	1814111.0	864399.0	0.114140	0.741316
     29274.10	0.12137	1868993.0	1667193.0	795120.0	0.114258	0.740404
     29274.59	0.13586	2092129.0	1866405.0	891057.0	0.114168	0.739361
     29275.09	0.12022	1843633.0	1645100.0	786421.0	0.113937	0.738064
     29275.58	0.12430	1917141.0	1710930.0	819100.0	0.113798	0.736586
     29276.07	0.12997	2000210.0	1784408.0	855893.0	0.114165	0.734697
     29276.56	0.12324	1902153.0	1697379.0	815747.0	0.113901	0.732736
     29277.06	0.12537	1930319.0	1722631.0	829624.0	0.113833	0.730635
     29277.55	0.11608	1785553.0	1593272.0	768138.0	0.113938	0.729576
     29278.04	0.12692	1957459.0	1746854.0	843955.0	0.113831	0.727473
     29278.54	0.11806	1822195.0	1626002.0	787514.0	0.113918	0.724998
     29279.03	0.12043	1853874.0	1654710.0	803017.0	0.113652	0.723005
     29279.52	0.12970	2004035.0	1788121.0	869750.0	0.113997	0.720715
     29280.02	0.12442	1921634.0	1714926.0	835378.0	0.113806	0.719241
     29280.51	0.12155	1876426.0	1674858.0	817818.0	0.113641	0.716844
     29281.00	0.11689	1803091.0	1609546.0	786870.0	0.113550	0.715644
     29281.49	0.11419	1760249.0	1571436.0	769734.0	0.113465	0.713700
     29281.99	0.12597	1942548.0	1733670.0	850388.0	0.113760	0.712303
     29282.48	0.11869	1831527.0	1634886.0	803333.0	0.113577	0.710559
     29282.97	0.12392	1909707.0	1704361.0	838883.0	0.113760	0.708874
     29283.47	0.13449	2073580.0	1851162.0	912316.0	0.113463	0.707582
     29283.96	0.13632	2102192.0	1876730.0	926078.0	0.113450	0.706328
     29284.45	0.14413	2213275.0	1976281.0	976577.0	0.113257	0.704918
     29284.95	0.12297	1891512.0	1688399.0	835166.0	0.113596	0.703906
     29285.44	0.11971	1845491.0	1647796.0	816011.0	0.113307	0.702766
     29285.93	0.11016	1699434.0	1517230.0	752117.0	0.113409	0.701750
     29286.43	0.13471	2078360.0	1855388.0	920660.0	0.113485	0.700758
     29286.92	0.11086	1709849.0	1526213.0	758260.0	0.113616	0.699518
     29287.41	0.13613	2096093.0	1871112.0	930084.0	0.113542	0.699013
     29287.91	0.14609	2247171.0	2006168.0	997791.0	0.113446	0.698438
     29288.40	0.12543	1919206.0	1713223.0	852791.0	0.113535	0.697617
     29288.89	0.10651	1637909.0	1462507.0	728163.0	0.113268	0.697382
     29289.39	0.12344	1902264.0	1698141.0	846188.0	0.113511	0.696548
     29289.88	0.13168	2030575.0	1813227.0	903946.0	0.113211	0.696094
     29290.37	0.12860	1982993.0	1770673.0	882559.0	0.113248	0.696289
     29290.87	0.12654	1950534.0	1741468.0	867846.0	0.113375	0.696469
     29291.36	0.14179	2185447.0	1951485.0	973046.0	0.113230	0.695915
     29291.85	0.14448	2225249.0	1986871.0	991108.0	0.113308	0.695493
     29292.35	0.12014	1848047.0	1649883.0	822714.0	0.113425	0.695851
     29292.84	0.11504	1768776.0	1579516.0	788149.0	0.113169	0.695187
     29293.33	0.12477	1923467.0	1717426.0	856687.0	0.113303	0.695509
     29293.83	0.11940	1839988.0	1643020.0	819141.0	0.113223	0.696035
     29294.32	0.12406	1912169.0	1707059.0	851361.0	0.113466	0.695691
     29294.81	0.13294	2045577.0	1826894.0	910382.0	0.113063	0.696508
     29295.31	0.12526	1930493.0	1723827.0	859161.0	0.113229	0.696346
     29295.80	0.12826	1969224.0	1758119.0	875408.0	0.113395	0.697310
     29296.29	0.11402	1755573.0	1567026.0	780178.0	0.113616	0.697413
     29296.79	0.10942	1678116.0	1498263.0	745603.0	0.113365	0.697868
     29297.28	0.11817	1811674.0	1618307.0	805017.0	0.112871	0.698272
     29297.77	0.11306	1737746.0	1551747.0	771339.0	0.113207	0.699009
     29298.27	0.11981	1839873.0	1643105.0	816069.0	0.113109	0.699844
     29298.76	0.14092	2166516.0	1934753.0	959842.0	0.113141	0.700966
     29299.26	0.12675	1950385.0	1741473.0	864109.0	0.113295	0.700788
     29299.75	0.13665	2098452.0	1874288.0	929188.0	0.112971	0.701673
     29300.24	0.076646	1178201.0	1052132.0	521272.0	0.113170	0.702302
     29300.74	0.091363	1404348.0	1254095.0	620433.0	0.113159	0.703752
     29301.23	0.13058	2006611.0	1792235.0	886029.0	0.112984	0.704469
     29301.72	0.14002	2149559.0	1919357.0	947941.0	0.113272	0.705453
     29302.22	0.11715	1799351.0	1607052.0	793087.0	0.113025	0.706224
     29302.71	0.14072	2158773.0	1927953.0	950560.0	0.113081	0.707163
     29303.21	0.15525	2384063.0	2129159.0	1049187.0	0.113079	0.707711
     29303.70	0.11239	1726815.0	1542008.0	758869.0	0.113193	0.709012
     29304.19	0.12241	1880097.0	1678978.0	825962.0	0.113138	0.709392
     29304.69	0.12694	1948933.0	1740259.0	855723.0	0.113248	0.709843
     29305.18	0.12954	1986390.0	1773912.0	871313.0	0.113132	0.710941
     29305.67	0.12705	1950357.0	1741482.0	854723.0	0.113276	0.711714
     29306.17	0.13241	2034877.0	1817367.0	891366.0	0.113047	0.712389
     29306.66	0.13723	2107713.0	1882312.0	922178.0	0.113103	0.713518
     29307.16	0.16986	2603658.0	2325903.0	1138868.0	0.112809	0.714074
     29307.65	0.11079	1698192.0	1516429.0	742316.0	0.113206	0.714338
     29308.14	0.098987	1518003.0	1355398.0	662622.0	0.113301	0.715646
     29308.64	0.13439	2060805.0	1840641.0	899482.0	0.112983	0.716050
     29309.13	0.14197	2179259.0	1946526.0	950455.0	0.112939	0.716861
     29309.63	0.12619	1938473.0	1731021.0	844806.0	0.113189	0.717360
     29310.12	0.13589	2085367.0	1862365.0	908600.0	0.113098	0.717698
     29310.61	0.13908	2133306.0	1905283.0	929139.0	0.113042	0.718127
     29311.11	0.13495	2073643.0	1851795.0	902483.0	0.113152	0.718761
     29311.60	0.12038	1849603.0	1652032.0	804532.0	0.112965	0.719501
     29312.10	0.12191	1874043.0	1673500.0	815294.0	0.113181	0.719124
     29312.59	0.12816	1974614.0	1763167.0	858488.0	0.113261	0.719694
     29313.08	0.11890	1830187.0	1634378.0	795983.0	0.113156	0.719440
     29313.58	0.12324	1899284.0	1696497.0	825628.0	0.112911	0.720177
     29314.07	0.12449	1914936.0	1710128.0	832314.0	0.113116	0.720114
     29314.57	0.13503	2082326.0	1859868.0	904952.0	0.112980	0.720379
     29315.06	0.13852	2136883.0	1908635.0	928418.0	0.112960	0.720662
     29315.56	0.11330	1747934.0	1560803.0	759339.0	0.113234	0.720507
     29316.05	0.12102	1863239.0	1664187.0	809418.0	0.112980	0.720777
     29316.54	0.12398	1902753.0	1699152.0	826369.0	0.113172	0.720843
     29317.04	0.11510	1774831.0	1584720.0	770464.0	0.113297	0.721170
     29317.53	0.11616	1787751.0	1596575.0	776150.0	0.113098	0.721270
     29318.03	0.12783	1968289.0	1757709.0	854940.0	0.113153	0.720735
     29318.52	0.12361	1906044.0	1702403.0	828188.0	0.112989	0.720556
     29319.02	0.12555	1935141.0	1728613.0	840984.0	0.112861	0.720502
     29319.51	0.12528	1932414.0	1725671.0	839837.0	0.113154	0.720163
     29320.00	0.11584	1786483.0	1595667.0	776591.0	0.112957	0.720133
     29320.50	0.11938	1838994.0	1642286.0	799492.0	0.113130	0.719868
     29320.99	0.12646	1950409.0	1742266.0	848297.0	0.112853	0.719711
     29321.49	0.12474	1924419.0	1719032.0	836884.0	0.112863	0.719831
     29321.98	0.14091	2152391.0	1922657.0	936813.0	0.112871	0.718980
     29322.48	0.13161	2031492.0	1813703.0	884285.0	0.113400	0.718346
     29322.97	0.12893	1985597.0	1773558.0	864509.0	0.112932	0.718581
     29323.47	0.11117	1714529.0	1531453.0	746738.0	0.112921	0.718258
     29323.96	0.13093	2020197.0	1804311.0	880110.0	0.113016	0.717887
     29324.45	0.12895	1986861.0	1774612.0	866124.0	0.112974	0.717309
     29324.95	0.12508	1926509.0	1721219.0	840333.0	0.112677	0.716990
     29325.44	0.11984	1847007.0	1649537.0	805927.0	0.113072	0.716257
     29325.94	0.12733	1963744.0	1754032.0	857263.0	0.112936	0.715928
     29326.43	0.13530	2086750.0	1863823.0	911485.0	0.112978	0.715310
     29326.93	0.12330	1903485.0	1700185.0	831745.0	0.112949	0.714966
     29327.42	0.10758	1660184.0	1483180.0	725946.0	0.112740	0.714468
     29327.92	0.13441	2071683.0	1850624.0	906381.0	0.112838	0.713818
     29328.41	0.12775	1968811.0	1758677.0	862051.0	0.112868	0.713003
     29328.91	0.13153	2024070.0	1808596.0	886481.0	0.112559	0.713046
     29329.40	0.13245	2043500.0	1826209.0	895571.0	0.112422	0.712536
     29329.89	0.13852	2130257.0	1903681.0	934353.0	0.112453	0.711690
     29330.39	0.12621	1939799.0	1733831.0	851272.0	0.112251	0.711357
     29330.88	0.13838	2127051.0	1900813.0	933966.0	0.112455	0.710597
     29331.38	0.11096	1701105.0	1520123.0	747207.0	0.112487	0.710204
     29331.87	0.11507	1764492.0	1576460.0	775379.0	0.112681	0.709585
     29332.37	0.13659	2105617.0	1881484.0	925860.0	0.112548	0.709093
     29332.86	0.11709	1799138.0	1607707.0	791305.0	0.112499	0.708881
     29333.36	0.12582	1941444.0	1735195.0	854241.0	0.112312	0.708662
     29333.85	0.12590	1940309.0	1734137.0	854156.0	0.112337	0.708151
     29334.35	0.13001	2004791.0	1791422.0	883259.0	0.112530	0.707147
     29334.84	0.11257	1737349.0	1552978.0	765489.0	0.112186	0.707415
     29335.34	0.11233	1723233.0	1540198.0	760252.0	0.112291	0.706016
     29335.83	0.13844	2109154.0	1885377.0	930463.0	0.112159	0.706201
     29336.33	0.12116	1850509.0	1654321.0	816352.0	0.112070	0.706300
     29336.82	0.10637	1631157.0	1457659.0	719839.0	0.112458	0.705559
     29337.32	0.11244	1726860.0	1543773.0	762520.0	0.112075	0.705356
     29337.81	0.12466	1917316.0	1713563.0	846819.0	0.112351	0.704843
     29338.31	0.11912	1833131.0	1638796.0	810013.0	0.112064	0.704667
     29338.80	0.12184	1876167.0	1677929.0	829477.0	0.111671	0.704520
     29339.30	0.11654	1792077.0	1602139.0	792304.0	0.112036	0.704150
     29339.79	0.11047	1696879.0	1517455.0	750546.0	0.111756	0.703989
     29340.29	0.12068	1847610.0	1652111.0	816987.0	0.111839	0.704186
     29340.78	0.12249	1878580.0	1679998.0	831303.0	0.111724	0.703554
     29341.28	0.12728	1955874.0	1749654.0	866033.0	0.111419	0.703250
     29341.77	0.13988	2154141.0	1926926.0	953938.0	0.111466	0.703083
     29342.27	0.16005	2464972.0	2204550.0	1091426.0	0.111657	0.703038
     29342.76	0.12629	1942564.0	1737921.0	860528.0	0.111319	0.702899
     29343.26	0.11702	1801276.0	1611252.0	797985.0	0.111484	0.702677
     29343.75	0.11309	1740497.0	1557063.0	771395.0	0.111369	0.702356
     29344.25	0.13274	2041515.0	1826427.0	904756.0	0.111331	0.702452
     29344.74	0.11883	1830403.0	1637516.0	811318.0	0.111356	0.702276
     29345.24	0.13808	2127078.0	1903397.0	942769.0	0.111109	0.702574
     29345.73	0.12374	1900658.0	1700788.0	842759.0	0.111108	0.702166
     29346.23	0.12946	1991827.0	1781670.0	883142.0	0.111501	0.701820
     29346.72	0.16176	2484130.0	2222576.0	1101269.0	0.111256	0.702204
     29347.22	0.10588	1632084.0	1459876.0	723383.0	0.111506	0.702168
     29347.72	0.12644	1949696.0	1744248.0	864428.0	0.111350	0.702011
     29348.21	0.13839	2128817.0	1905161.0	943778.0	0.111000	0.702431
     29348.71	0.12965	1991510.0	1782335.0	883070.0	0.110969	0.702275
     29349.20	0.13698	2109093.0	1887451.0	934795.0	0.111031	0.702655
     29349.70	0.13137	2022568.0	1809852.0	896518.0	0.111123	0.702482
     29350.19	0.13529	2084072.0	1864940.0	923551.0	0.111095	0.702758
     29350.69	0.12735	1952555.0	1748064.0	865559.0	0.110630	0.702889
     29351.18	0.12098	1852044.0	1657918.0	820888.0	0.110727	0.702931
     29351.68	0.12870	1982204.0	1774452.0	878241.0	0.110718	0.703326
     29352.17	0.12128	1864378.0	1668952.0	825971.0	0.110732	0.703391
     29352.67	0.12395	1906743.0	1706743.0	844665.0	0.110810	0.703402
     29353.16	0.13217	2027307.0	1815036.0	898112.0	0.110603	0.703566
     29353.66	0.12515	1926464.0	1724798.0	853403.0	0.110576	0.703633
     29354.16	0.13483	2074554.0	1857093.0	918394.0	0.110734	0.704141
     29354.65	0.12209	1876027.0	1679183.0	830742.0	0.110849	0.703743
     29355.15	0.12317	1894586.0	1696428.0	838470.0	0.110475	0.704701
     29355.64	0.12479	1919282.0	1718340.0	849688.0	0.110592	0.704245
     29356.14	0.12321	1888466.0	1691611.0	836153.0	0.110084	0.704625
     29356.63	0.11752	1806182.0	1617214.0	799028.0	0.110510	0.705064
     29357.13	0.12808	1970716.0	1764294.0	871702.0	0.110646	0.705058
     29357.63	0.12446	1907250.0	1708203.0	843472.0	0.110220	0.705671
     29358.12	0.11539	1770577.0	1585958.0	782745.0	0.110117	0.706137
     29358.62	0.11859	1823157.0	1633176.0	806243.0	0.110043	0.705897
     29359.11	0.12790	1966167.0	1761380.0	869225.0	0.109988	0.706251
     29359.61	0.11186	1715718.0	1536740.0	758243.0	0.110168	0.706415
     29360.10	0.10890	1668701.0	1494746.0	737276.0	0.110089	0.706749
     29360.60	0.13931	2135197.0	1912833.0	943241.0	0.109974	0.707019
     29361.09	0.12614	1934016.0	1732867.0	854303.0	0.109821	0.707247
     29361.59	0.12400	1898424.0	1700843.0	838531.0	0.109900	0.707228
     29362.09	0.13793	2118076.0	1897853.0	935364.0	0.109785	0.707543
     29362.58	0.12388	1900244.0	1702169.0	838558.0	0.110079	0.707975
     29363.08	0.13007	1996207.0	1788459.0	881516.0	0.109895	0.707466
     29363.57	0.12309	1885796.0	1689622.0	832553.0	0.109845	0.707763
     29364.07	0.12580	1932130.0	1731313.0	852776.0	0.109743	0.708138
     29364.57	0.13401	2057502.0	1844120.0	907834.0	0.109490	0.708696
     29365.06	0.12711	1947352.0	1744687.0	859148.0	0.109895	0.708389
     29365.56	0.12091	1854549.0	1661906.0	818429.0	0.109676	0.708334
     29366.05	0.12896	1981206.0	1775255.0	874127.0	0.109762	0.708474
     29366.55	0.11894	1825475.0	1636354.0	805584.0	0.109370	0.708658
     29367.05	0.13052	1999496.0	1792405.0	882624.0	0.109337	0.708414
     29367.54	0.12708	1951047.0	1748818.0	861413.0	0.109426	0.708121
     29368.04	0.12528	1923888.0	1724177.0	848889.0	0.109598	0.708577
     29368.53	0.13039	1999997.0	1792840.0	883084.0	0.109345	0.708136
     29369.03	0.13192	2024139.0	1814523.0	893604.0	0.109322	0.708315
     29369.53	0.12805	1943199.0	1741560.0	857663.0	0.109554	0.708325
     29370.02	0.11433	1736926.0	1557056.0	767051.0	0.109320	0.707999
     29370.52	0.13122	2000024.0	1792667.0	883186.0	0.109455	0.707924
     29371.01	0.13922	2125398.0	1905222.0	938914.0	0.109361	0.707630
     29371.51	0.12326	1885471.0	1690332.0	833135.0	0.109253	0.707485
     29372.01	0.12559	1923141.0	1723559.0	849889.0	0.109568	0.707041
     29372.50	0.13076	2004312.0	1797059.0	886118.0	0.109149	0.707057
     29373.00	0.12553	1921150.0	1722332.0	849668.0	0.109245	0.706589
     29373.49	0.13237	2027810.0	1818048.0	896708.0	0.109193	0.706788
     29373.99	0.12386	1879748.0	1685254.0	831643.0	0.109221	0.706268
     29374.49	0.12056	1829114.0	1640048.0	809309.0	0.109106	0.706300
     29374.98	0.12685	1932621.0	1732826.0	855589.0	0.109124	0.705719
     29375.48	0.11927	1822937.0	1634672.0	807330.0	0.109007	0.705465
     29375.98	0.11171	1705437.0	1529115.0	755362.0	0.109132	0.705247
     29376.47	0.12331	1886860.0	1691866.0	836340.0	0.109082	0.704552
     29376.97	0.11699	1791436.0	1606391.0	794385.0	0.109027	0.704177
     29377.46	0.11480	1756405.0	1574693.0	778884.0	0.109209	0.703953
     29377.96	0.12596	1926075.0	1726939.0	854575.0	0.109134	0.703501
     29378.46	0.11655	1783913.0	1599710.0	791999.0	0.108987	0.703018
     29378.95	0.12966	1981000.0	1776336.0	879598.0	0.109049	0.702843
     29379.45	0.094334	1443271.0	1293946.0	641098.0	0.109216	0.702269
     29379.95	0.12376	1892707.0	1696911.0	840999.0	0.109199	0.701974
     29380.44	0.11541	1761581.0	1579874.0	783239.0	0.108867	0.701662
     29380.94	0.12697	1943519.0	1742995.0	864888.0	0.108895	0.700760
     29381.44	0.13179	2019120.0	1810475.0	898179.0	0.109073	0.700975
     29381.93	0.11594	1776103.0	1593216.0	791080.0	0.108667	0.700111
     29382.43	0.14410	2203784.0	1976569.0	981574.0	0.108813	0.699960
     29382.93	0.14467	2211430.0	1983487.0	985676.0	0.108783	0.699284
     29383.42	0.12029	1837146.0	1647496.0	819241.0	0.108957	0.698634
     29383.92	0.10466	1600393.0	1435257.0	713916.0	0.108905	0.698334
     29384.41	0.14219	2173790.0	1949676.0	970715.0	0.108809	0.697386
     29384.91	0.12983	1985016.0	1780393.0	886740.0	0.108793	0.697038
     29385.41	0.12678	1937707.0	1737845.0	865703.0	0.108859	0.696859
     29385.90	0.13344	2040818.0	1830010.0	912255.0	0.109029	0.696157
     29386.40	0.13380	2045728.0	1834779.0	915474.0	0.108830	0.695237
     29386.90	0.13484	2053313.0	1841174.0	919092.0	0.109051	0.694772
     29387.39	0.11195	1712491.0	1535641.0	766694.0	0.109001	0.694615
     29387.89	0.13549	2071465.0	1858320.0	928057.0	0.108583	0.694335
     29388.39	0.13315	2029196.0	1820312.0	909967.0	0.108632	0.693355
     29388.88	0.12248	1871766.0	1678958.0	839547.0	0.108709	0.693066
     29389.38	0.14806	2263683.0	2030270.0	1015598.0	0.108824	0.692691
     29389.88	0.13055	1995332.0	1790368.0	896246.0	0.108389	0.691962
     29390.37	0.13483	2061259.0	1848904.0	925853.0	0.108724	0.691633
     29390.87	0.12917	1971935.0	1769124.0	886306.0	0.108531	0.691178
     29391.37	0.14510	2213707.0	1985733.0	995088.0	0.108680	0.690912
     29391.87	0.10554	1610886.0	1444680.0	724133.0	0.108896	0.690668
     29392.36	0.12455	1903125.0	1707093.0	856224.0	0.108705	0.690015
     29392.86	0.12941	1977790.0	1774168.0	890045.0	0.108648	0.689815
     29393.36	0.13467	2053257.0	1842244.0	924454.0	0.108443	0.689536
     29393.85	0.12287	1875522.0	1682675.0	844645.0	0.108502	0.689224
     29394.35	0.12556	1915837.0	1718924.0	863338.0	0.108456	0.688648
     29394.85	0.13084	1997644.0	1792339.0	900780.0	0.108447	0.688016
     29395.34	0.11999	1833467.0	1645020.0	827131.0	0.108456	0.687545
     29395.84	0.12029	1836070.0	1647342.0	828696.0	0.108464	0.687065
     29396.34	0.12884	1968517.0	1766318.0	888718.0	0.108383	0.686872
     29396.83	0.12415	1895969.0	1700995.0	855656.0	0.108517	0.687100
     29397.33	0.12934	1973976.0	1771499.0	891552.0	0.108224	0.686618
     29397.83	0.12906	1969441.0	1766986.0	889565.0	0.108474	0.686298
     29398.33	0.12143	1855572.0	1665058.0	838025.0	0.108333	0.686567
     29398.82	0.11767	1795437.0	1611330.0	811582.0	0.108189	0.685830
     29399.32	0.12729	1945378.0	1746046.0	879530.0	0.108102	0.685721
     29399.82	0.10715	1636529.0	1468620.0	739990.0	0.108254	0.685442
     29400.31	0.10808	1650831.0	1481250.0	746423.0	0.108392	0.685349
     29400.81	0.13663	2087496.0	1873605.0	944635.0	0.108101	0.684821
     29401.31	0.11564	1765625.0	1584659.0	798742.0	0.108135	0.685087
     29401.80	0.12522	1906151.0	1711565.0	862517.0	0.107678	0.685309
     29402.30	0.13515	2063260.0	1852174.0	933755.0	0.107927	0.684901
     29402.80	0.12095	1845150.0	1656157.0	835208.0	0.108061	0.684574
     29403.30	0.13359	2037064.0	1828623.0	922182.0	0.107946	0.684576
     29403.79	0.13303	2030303.0	1822395.0	919083.0	0.108033	0.684530
     29404.29	0.12010	1829297.0	1642487.0	828999.0	0.107720	0.683748
     29404.79	0.12972	1979690.0	1777565.0	896638.0	0.107696	0.684348
     29405.29	0.13208	2010090.0	1804629.0	910619.0	0.107824	0.683986
     29405.78	0.12364	1885098.0	1692826.0	854018.0	0.107580	0.684202
     29406.28	0.11601	1769575.0	1588752.0	801585.0	0.107791	0.684113
     29406.78	0.12826	1957594.0	1757602.0	886839.0	0.107766	0.684042
     29407.27	0.12608	1922049.0	1725811.0	870801.0	0.107695	0.684039
     29407.77	0.12766	1946173.0	1747442.0	881742.0	0.107712	0.684009
     29408.27	0.11634	1773336.0	1592274.0	803179.0	0.107699	0.684341
     29408.77	0.12804	1952943.0	1753596.0	884531.0	0.107669	0.684366
     29409.26	0.13533	2062494.0	1852055.0	934484.0	0.107620	0.684057
     29409.76	0.12713	1933670.0	1736701.0	875646.0	0.107432	0.684781
     29410.26	0.13363	2029932.0	1822600.0	919758.0	0.107738	0.683909
     29410.76	0.12613	1922763.0	1726965.0	871025.0	0.107398	0.684450
     29411.25	0.14595	2217807.0	1992467.0	1005052.0	0.107145	0.684334
     29411.75	0.11615	1768815.0	1588456.0	800936.0	0.107547	0.684737
     29412.25	0.12809	1951738.0	1753061.0	884196.0	0.107357	0.684440
     29412.75	0.12048	1836610.0	1649790.0	831794.0	0.107273	0.684818
     29413.24	0.13369	2033962.0	1827495.0	921050.0	0.107039	0.685187
     29413.74	0.12085	1843356.0	1656024.0	834830.0	0.107168	0.684947
     29414.24	0.12928	1970284.0	1770165.0	892302.0	0.107105	0.685023
     29414.74	0.12119	1847086.0	1659447.0	836431.0	0.107125	0.685096
     29415.23	0.14547	2208776.0	1984418.0	999756.0	0.107113	0.685570
     29415.73	0.12985	1970501.0	1770574.0	892394.0	0.106984	0.685151
     29416.23	0.10705	1624819.0	1459808.0	735376.0	0.107092	0.685678
     29416.73	0.11146	1695013.0	1522779.0	767090.0	0.107153	0.685688
     29417.22	0.12859	1952377.0	1754425.0	883702.0	0.106906	0.685777
     29417.72	0.11599	1768563.0	1589273.0	800566.0	0.106891	0.685713
     29418.22	0.12501	1904490.0	1711800.0	862211.0	0.106669	0.685801
     29418.72	0.10885	1658508.0	1490508.0	750292.0	0.106801	0.686410
     29419.22	0.11415	1738299.0	1561995.0	786282.0	0.106943	0.686404
     29419.71	0.11704	1782975.0	1602372.0	806722.0	0.106798	0.686261
     29420.21	0.10589	1609353.0	1446447.0	727996.0	0.106722	0.686570
     29420.71	0.11939	1816386.0	1632438.0	821732.0	0.106774	0.686416
     29421.21	0.12063	1836665.0	1650886.0	830621.0	0.106639	0.686894
     29421.70	0.12897	1963172.0	1765034.0	888217.0	0.106392	0.686709
     29422.20	0.12623	1916702.0	1723020.0	866983.0	0.106527	0.686814
     29422.70	0.12889	1957813.0	1759742.0	885589.0	0.106661	0.686670
     29423.20	0.11619	1766070.0	1587750.0	798871.0	0.106439	0.686874
     29423.70	0.15382	2322748.0	2088391.0	1050700.0	0.106357	0.686937
     29424.19	0.11891	1806084.0	1623590.0	816950.0	0.106521	0.686817
     29424.69	0.11284	1717230.0	1543810.0	776565.0	0.106459	0.687128
     29425.19	0.13086	1991646.0	1790686.0	900645.0	0.106363	0.687243
     29425.69	0.14101	2140447.0	1924783.0	968231.0	0.106201	0.687098
     29426.19	0.12785	1940949.0	1745255.0	877915.0	0.106276	0.687106
     29426.68	0.13159	1996545.0	1795777.0	903193.0	0.105980	0.687257
     29427.18	0.12318	1869061.0	1680618.0	845771.0	0.106275	0.686668
     29427.68	0.15091	2291943.0	2061273.0	1036811.0	0.106076	0.687174
     29428.18	0.11110	1689466.0	1519479.0	764653.0	0.106045	0.686701
     29428.68	0.11994	1817299.0	1634446.0	822316.0	0.106047	0.686934
     29429.17	0.15168	2296554.0	2065318.0	1038919.0	0.106126	0.687103
     29429.67	0.12620	1912965.0	1720687.0	865971.0	0.105931	0.686627
     29430.17	0.13450	2042899.0	1837601.0	924865.0	0.105909	0.686568
     29430.67	0.12735	1937051.0	1741843.0	876596.0	0.106223	0.686653
     29431.17	0.13558	2056216.0	1849889.0	931060.0	0.105742	0.686557
     29431.66	0.12602	1913560.0	1721384.0	866406.0	0.105837	0.686530
     29432.16	0.12894	1960130.0	1762624.0	887581.0	0.106207	0.686059
     29432.66	0.13651	2074669.0	1865969.0	939791.0	0.106021	0.685878
     29433.16	0.12784	1942451.0	1747644.0	880285.0	0.105682	0.685778
     29433.66	0.12546	1905601.0	1714137.0	863558.0	0.105888	0.685604
     29434.16	0.12709	1928080.0	1734332.0	873552.0	0.105902	0.685810
     29434.65	0.12283	1864454.0	1677787.0	845353.0	0.105493	0.685477
     29435.15	0.12109	1833630.0	1649561.0	831589.0	0.105788	0.684926
     29435.65	0.12754	1933083.0	1739565.0	876679.0	0.105481	0.685249
     29436.15	0.12408	1882248.0	1693230.0	853996.0	0.105829	0.684467
     29436.65	0.12578	1907031.0	1715817.0	865264.0	0.105658	0.684610
     29437.15	0.12484	1894687.0	1704992.0	860067.0	0.105493	0.684305
     29437.64	0.12258	1860426.0	1673794.0	844700.0	0.105713	0.683867
     29438.14	0.12653	1917094.0	1725035.0	870553.0	0.105563	0.683874
     29438.64	0.12180	1845222.0	1660659.0	838405.0	0.105385	0.683469
     29439.14	0.11638	1765683.0	1589232.0	802335.0	0.105287	0.683480
     29439.64	0.12376	1879480.0	1691102.0	854328.0	0.105615	0.682820
     29440.14	0.11324	1717978.0	1546103.0	780975.0	0.105410	0.682950
     29440.63	0.11939	1808427.0	1627376.0	822494.0	0.105489	0.682383
     29441.13	0.12468	1891045.0	1701717.0	860122.0	0.105492	0.682319
     29441.63	0.11820	1790811.0	1611589.0	815033.0	0.105448	0.681747
     29442.13	0.12504	1895064.0	1705616.0	862775.0	0.105326	0.681528
     29442.63	0.13441	2039408.0	1835591.0	928818.0	0.105293	0.681209
     29443.13	0.12112	1835750.0	1652539.0	836571.0	0.105140	0.680757
     29443.63	0.13228	2002923.0	1802887.0	912975.0	0.105218	0.680436
     29444.12	0.12925	1958577.0	1763298.0	893356.0	0.105032	0.679956
     29444.62	0.12625	1913975.0	1723029.0	873273.0	0.105098	0.679591
     29445.12	0.13131	1992111.0	1793066.0	909252.0	0.105268	0.679060
     29445.62	0.12693	1925216.0	1732639.0	878893.0	0.105392	0.678738
     29446.12	0.12017	1821239.0	1639507.0	831749.0	0.105121	0.678620
     29446.62	0.12408	1880496.0	1692432.0	859075.0	0.105369	0.678066
     29447.12	0.12582	1905870.0	1715320.0	870725.0	0.105339	0.678029
     29447.62	0.11959	1810490.0	1629861.0	828052.0	0.105103	0.677174
     29448.11	0.12354	1865500.0	1679539.0	853521.0	0.105010	0.676904
     29448.61	0.12573	1897855.0	1708821.0	868687.0	0.104921	0.676576
     29449.11	0.13648	2065589.0	1860154.0	945942.0	0.104756	0.676233
     29449.61	0.12432	1879867.0	1692537.0	861519.0	0.104972	0.675287
     29450.11	0.13031	1968807.0	1772481.0	902225.0	0.105048	0.675272
     29450.61	0.13395	2024656.0	1823129.0	928195.0	0.104846	0.675068
     29451.11	0.13021	1968179.0	1772031.0	902443.0	0.104982	0.674776
     29451.61	0.12503	1891265.0	1703337.0	868167.0	0.104657	0.673960
     29452.10	0.12343	1866565.0	1680841.0	856764.0	0.104806	0.673887
     29452.60	0.13262	2009445.0	1808851.0	922427.0	0.105167	0.673439
     29453.10	0.12453	1886049.0	1698727.0	866728.0	0.104605	0.672909
     29453.60	0.12678	1915813.0	1725394.0	880881.0	0.104687	0.672288
     29454.10	0.12521	1892853.0	1704808.0	870438.0	0.104633	0.672211
     29454.60	0.12755	1927107.0	1736137.0	886749.0	0.104357	0.671856
     29455.10	0.13137	1982094.0	1785018.0	911952.0	0.104725	0.671596
     29455.60	0.11343	1717013.0	1546397.0	790125.0	0.104658	0.671492
     29456.10	0.12450	1874704.0	1688771.0	863670.0	0.104450	0.670566
     29456.59	0.11956	1801456.0	1622488.0	830156.0	0.104634	0.670102
     29457.09	0.12608	1904213.0	1715174.0	877812.0	0.104554	0.669837
     29457.59	0.11867	1797895.0	1619011.0	828927.0	0.104801	0.669439
     29458.09	0.11354	1715592.0	1545470.0	791423.0	0.104430	0.669251
     29458.59	0.12697	1919150.0	1728730.0	885544.0	0.104495	0.668940
     29459.09	0.11557	1748106.0	1575013.0	807138.0	0.104269	0.668524
     29459.59	0.11072	1671708.0	1506048.0	771928.0	0.104357	0.668353
     29460.09	0.11572	1748458.0	1575336.0	807898.0	0.104266	0.667788
     29460.59	0.11485	1736586.0	1564549.0	802796.0	0.104324	0.667252
     29461.09	0.12077	1826161.0	1644894.0	844482.0	0.104540	0.666708
     29461.59	0.11752	1770548.0	1595085.0	819010.0	0.104362	0.666586
     29462.09	0.13015	1965994.0	1771160.0	909979.0	0.104363	0.665968
     29462.58	0.12659	1912885.0	1723816.0	885545.0	0.104072	0.666092
     29463.08	0.15600	2357364.0	2124419.0	1091974.0	0.104046	0.665511
     29463.58	0.11060	1664150.0	1499675.0	770813.0	0.104066	0.665558
     29464.08	0.13272	1996560.0	1798908.0	925081.0	0.104246	0.665054
     29464.58	0.11562	1748469.0	1575861.0	810253.0	0.103939	0.665211
     29465.08	0.12875	1943734.0	1751525.0	900962.0	0.104124	0.664779
     29465.58	0.12990	1942758.0	1750985.0	901386.0	0.103930	0.664000
     29466.08	0.14441	2154098.0	1941086.0	1000031.0	0.104124	0.663217
     29466.58	0.12854	1931467.0	1740661.0	896329.0	0.104015	0.663713
     29467.08	0.17406	2616931.0	2358667.0	1215365.0	0.103906	0.663052
     29467.58	0.095678	1438099.0	1296113.0	667683.0	0.103952	0.663312
     29468.08	0.10302	1548463.0	1395624.0	719176.0	0.103921	0.662991
     29468.58	0.13440	2024509.0	1824501.0	940479.0	0.104021	0.662672
     29469.08	0.14096	2122336.0	1913320.0	986534.0	0.103677	0.662397
     29469.58	0.12843	1935333.0	1744466.0	899584.0	0.103831	0.662271
     29470.07	0.15183	2292932.0	2066834.0	1066203.0	0.103813	0.661914
     29470.57	0.12999	1960268.0	1767247.0	911555.0	0.103658	0.662026
     29471.07	0.13895	2098753.0	1891958.0	976105.0	0.103731	0.661797
     29471.57	0.11093	1673506.0	1508830.0	778412.0	0.103586	0.661834
     29472.07	0.13352	2014575.0	1816121.0	937430.0	0.103705	0.661316
     29472.57	0.12290	1850232.0	1668225.0	861284.0	0.103551	0.661091
     29473.07	0.13030	1963816.0	1770544.0	914152.0	0.103603	0.661045
     29473.57	0.12512	1881575.0	1696320.0	876210.0	0.103648	0.660611
     29474.07	0.13077	1968132.0	1774772.0	916795.0	0.103413	0.660543
     29474.57	0.14711	2212537.0	1995442.0	1030540.0	0.103274	0.660783
     29475.07	0.10568	1586188.0	1430076.0	738984.0	0.103606	0.660207
     29475.57	0.12287	1844856.0	1663705.0	859434.0	0.103354	0.660528
     29476.07	0.11499	1728554.0	1558749.0	805222.0	0.103402	0.660521
     29476.57	0.12964	1954216.0	1762588.0	910982.0	0.103206	0.660015
     29477.07	0.12336	1859764.0	1677330.0	866854.0	0.103246	0.660088
     29477.57	0.12213	1839563.0	1659249.0	857664.0	0.103163	0.659908
     29478.07	0.12486	1877813.0	1693717.0	875316.0	0.103182	0.660096
     29478.57	0.12639	1904224.0	1717569.0	887560.0	0.103165	0.660189
     29479.07	0.11038	1659827.0	1497459.0	774133.0	0.102944	0.659781
     29479.57	0.12213	1838163.0	1657853.0	857235.0	0.103243	0.659567
     29480.07	0.12108	1825644.0	1646554.0	851085.0	0.103248	0.659928
     29480.57	0.13133	1977822.0	1783913.0	922085.0	0.103187	0.659927
     29481.07	0.11457	1726509.0	1557306.0	805081.0	0.103144	0.659770
     29481.57	0.12038	1808118.0	1631005.0	843223.0	0.103090	0.659720
     29482.07	0.13263	1995739.0	1800103.0	930475.0	0.103171	0.659904
     29482.57	0.14864	2236592.0	2017822.0	1043307.0	0.102935	0.659623
     29483.07	0.11949	1798244.0	1622518.0	838932.0	0.102831	0.659605
     29483.57	0.11817	1778756.0	1605499.0	830229.0	0.102480	0.659488
     29484.07	0.13788	2075810.0	1872696.0	967986.0	0.102972	0.659917
     29484.57	0.12268	1843913.0	1663508.0	860020.0	0.102961	0.659728
     29485.07	0.12445	1873022.0	1689875.0	873758.0	0.102899	0.659606
     29485.57	0.12320	1855100.0	1673724.0	865264.0	0.102888	0.659772
     29486.07	0.13278	1993437.0	1798756.0	929571.0	0.102765	0.660127
     29486.57	0.13543	2036444.0	1837608.0	950237.0	0.102740	0.659509
     29487.07	0.11598	1743825.0	1573872.0	813506.0	0.102542	0.659941
     29487.57	0.11437	1716053.0	1548988.0	800776.0	0.102425	0.659776
     29488.07	0.12632	1898310.0	1713232.0	885936.0	0.102582	0.659492
     29488.57	0.12123	1825436.0	1647094.0	851395.0	0.102806	0.659892
     29489.07	0.13373	2009936.0	1813700.0	937412.0	0.102734	0.660001
     29489.57	0.13831	2078348.0	1875861.0	969542.0	0.102506	0.659999
     29490.07	0.17386	2610258.0	2355889.0	1217309.0	0.102531	0.660275
     29490.57	0.10038	1503008.0	1356303.0	700717.0	0.102706	0.660414
     29491.07	0.10459	1562317.0	1410315.0	728583.0	0.102357	0.660467
     29491.57	0.12424	1858069.0	1677125.0	866904.0	0.102457	0.659908
     29492.07	0.12815	1920675.0	1734076.0	896140.0	0.102202	0.660133
     29492.57	0.12337	1853027.0	1672758.0	864110.0	0.102347	0.660529
     29493.07	0.12646	1901016.0	1716467.0	887141.0	0.102120	0.660019
     29493.57	0.12443	1870340.0	1688394.0	872356.0	0.102342	0.660335
     29494.07	0.13143	1967972.0	1776716.0	917840.0	0.102237	0.660499
     29494.57	0.11795	1767543.0	1595939.0	824539.0	0.102128	0.660393
     29495.07	0.11759	1767168.0	1595749.0	824015.0	0.102035	0.660910
     29495.57	0.12541	1879226.0	1697218.0	877219.0	0.101870	0.659989
     29496.07	0.12646	1895960.0	1712481.0	884944.0	0.101782	0.660174
     29496.57	0.12321	1846906.0	1667925.0	861696.0	0.101931	0.660433
     29497.07	0.11772	1745797.0	1576563.0	814098.0	0.101964	0.660922
     29497.57	0.14928	2232893.0	2016372.0	1041781.0	0.101998	0.660368
     29498.07	0.10296	1534692.0	1386515.0	716387.0	0.101536	0.660328
     29498.57	0.097547	1461884.0	1320583.0	682260.0	0.101653	0.660418
     29499.07	0.10709	1602131.0	1447026.0	747914.0	0.101824	0.659978
     29499.57	0.10774	1606415.0	1450857.0	749629.0	0.101851	0.660331
     29500.07	0.11995	1793089.0	1619594.0	836760.0	0.101764	0.660393
     29500.58	0.12852	1925266.0	1739042.0	898758.0	0.101730	0.660076
     29501.08	0.12362	1853401.0	1674573.0	865231.0	0.101464	0.660317
     29501.58	0.13418	2012264.0	1817611.0	939308.0	0.101737	0.660135
     29502.08	0.12270	1840185.0	1662847.0	859730.0	0.101335	0.659668
     29502.58	0.12015	1801903.0	1627782.0	841417.0	0.101625	0.659886
     29503.08	0.14797	2209783.0	1996333.0	1031618.0	0.101582	0.660184
     29503.58	0.11662	1748459.0	1579905.0	816719.0	0.101370	0.659825
     29504.08	0.14165	2120870.0	1916172.0	990902.0	0.101497	0.659469
     29504.58	0.12319	1839881.0	1662400.0	859860.0	0.101439	0.659248
     29505.08	0.13418	2009902.0	1815714.0	938977.0	0.101607	0.659443
     29505.58	0.16018	2402432.0	2170475.0	1122324.0	0.101536	0.659545
     29506.08	0.13826	2072349.0	1872803.0	968611.0	0.101247	0.659328
     29506.58	0.094501	1418415.0	1281824.0	663437.0	0.101256	0.658605
     29507.08	0.13281	1991706.0	1800146.0	930857.0	0.101124	0.659517
     29507.58	0.12304	1847008.0	1669022.0	863377.0	0.101329	0.659142
     29508.09	0.13088	1960621.0	1771750.0	916676.0	0.101294	0.658969
     29508.59	0.17287	2587204.0	2338105.0	1210136.0	0.101237	0.658608
     29509.09	0.14574	2180088.0	1970811.0	1020020.0	0.100920	0.658623
     29509.59	0.19153	2873938.0	2597528.0	1345008.0	0.101123	0.658160
     29510.09	0.072121	1080167.0	976325.0	505617.0	0.101075	0.658016
     29510.59	0.075932	1134192.0	1025385.0	531175.0	0.100852	0.657732
     29511.09	0.13183	1977315.0	1787358.0	925398.0	0.101001	0.658270
     29511.59	0.13256	1986146.0	1795715.0	930627.0	0.100793	0.657300
     29512.09	0.12812	1914850.0	1731034.0	896989.0	0.100920	0.657431
     29512.59	0.12388	1853422.0	1675582.0	868022.0	0.100873	0.657699
     29513.09	0.12684	1897555.0	1715257.0	888812.0	0.101003	0.657432
     29513.60	0.12086	1810540.0	1636847.0	848534.0	0.100853	0.657017
     29514.10	0.12857	1925331.0	1740565.0	902317.0	0.100888	0.656999
     29514.60	0.12746	1910546.0	1726958.0	895536.0	0.101028	0.656694
     29515.10	0.12043	1802383.0	1630147.0	845398.0	0.100439	0.656618
     29515.60	0.12568	1882283.0	1702278.0	882956.0	0.100518	0.656447
     29516.10	0.12357	1849960.0	1672962.0	867996.0	0.100568	0.656164
     29516.60	0.12529	1875561.0	1696207.0	880376.0	0.100513	0.655801
     29517.10	0.13430	2009083.0	1816388.0	942850.0	0.100828	0.655698
     29517.60	0.11226	1680610.0	1519302.0	788596.0	0.100906	0.655752
     29518.10	0.12415	1857908.0	1680026.0	872812.0	0.100642	0.654844
     29518.61	0.12283	1837212.0	1661880.0	863162.0	0.100300	0.655102
     29519.11	0.11356	1698576.0	1536470.0	798201.0	0.100303	0.654882
     29519.61	0.12195	1825167.0	1650457.0	857662.0	0.100619	0.654597
     29520.11	0.12485	1870107.0	1691803.0	879642.0	0.100201	0.654035
     29520.61	0.12502	1872389.0	1693087.0	880695.0	0.100662	0.653597
     29521.11	0.13162	1968951.0	1781093.0	926534.0	0.100274	0.653532
     29521.61	0.12064	1800170.0	1628429.0	847035.0	0.100265	0.653629
     29522.11	0.12851	1920392.0	1736743.0	904264.0	0.100518	0.652645
     29522.62	0.12479	1864470.0	1686354.0	878247.0	0.100408	0.652396
     29523.12	0.13705	2044364.0	1849401.0	963082.0	0.100225	0.652479
     29523.62	0.12997	1934607.0	1750055.0	911572.0	0.100257	0.652232
     29524.12	0.12444	1857189.0	1679447.0	875066.0	0.100599	0.651921
     29524.62	0.12464	1859119.0	1681472.0	876127.0	0.100433	0.651914
     29525.12	0.11738	1754780.0	1587357.0	827298.0	0.100273	0.651661
     29525.62	0.12697	1897544.0	1716580.0	895316.0	0.100226	0.650912
     29526.12	0.11793	1760156.0	1592434.0	830633.0	0.100139	0.650831
     29526.63	0.12422	1856713.0	1679709.0	876498.0	0.100187	0.650441
     29527.13	0.13243	1980868.0	1791823.0	935397.0	0.100302	0.650018
     29527.63	0.12485	1855488.0	1679014.0	876498.0	0.0999410	0.650028
     29528.13	0.13372	1998468.0	1808139.0	944296.0	0.100083	0.649614
     29528.63	0.13080	1953735.0	1767585.0	923136.0	0.100129	0.649593
     29529.13	0.12976	1933567.0	1749575.0	914318.0	0.0999936	0.648950
     29529.64	0.12388	1847451.0	1671506.0	873614.0	0.100082	0.648842
     29530.14	0.12890	1924313.0	1741197.0	910402.0	0.0999962	0.648442
     29530.64	0.12884	1922846.0	1739548.0	909997.0	0.100181	0.647939
     29531.14	0.12547	1872692.0	1694778.0	886448.0	0.0998252	0.648085
     29531.64	0.12717	1895861.0	1715341.0	898024.0	0.100061	0.647170
     29532.14	0.13204	1936582.0	1752070.0	917032.0	0.100127	0.647411
     29532.64	0.12726	1877050.0	1698256.0	889259.0	0.100100	0.646969
     29533.15	0.11946	1764113.0	1597012.0	836317.0	0.0995136	0.646882
     29533.65	0.11127	1650280.0	1493327.0	782378.0	0.0999385	0.646424
     29534.15	0.12905	1916195.0	1734344.0	909231.0	0.0997122	0.645785
     29534.65	0.12423	1845040.0	1670025.0	875449.0	0.0996624	0.645857
     29535.15	0.11872	1764676.0	1597430.0	837551.0	0.0995710	0.645669
     29535.65	0.12168	1814842.0	1642505.0	861466.0	0.0997759	0.645342
     29536.16	0.11843	1761529.0	1594761.0	836593.0	0.0994583	0.645141
     29536.66	0.11585	1728841.0	1565057.0	821475.0	0.0995290	0.644576
     29537.16	0.11806	1763226.0	1595813.0	837808.0	0.0997618	0.644350
     29537.66	0.10896	1625115.0	1470911.0	772491.0	0.0996966	0.644017
     29538.16	0.10990	1640229.0	1484636.0	779811.0	0.0996662	0.643873
     29538.67	0.12256	1826229.0	1653321.0	868855.0	0.0994672	0.643365
     29539.17	0.11549	1722030.0	1558590.0	819149.0	0.0997223	0.643271
     29539.67	0.13259	1971819.0	1785194.0	938444.0	0.0994294	0.643059
     29540.17	0.13204	1965069.0	1779006.0	935362.0	0.0994726	0.642876
     29540.67	0.12020	1788865.0	1619220.0	851744.0	0.0996368	0.642414
     29541.17	0.13095	1949812.0	1765286.0	928895.0	0.0994202	0.642072
     29541.68	0.13856	2061587.0	1866328.0	982433.0	0.0995032	0.641696
     29542.18	0.11842	1758445.0	1591711.0	837927.0	0.0996204	0.641634
     29542.68	0.13825	2054951.0	1860405.0	979310.0	0.0994578	0.641701
     29543.18	0.12366	1844640.0	1670472.0	879796.0	0.0991779	0.641171
     29543.68	0.13230	1971568.0	1785382.0	940299.0	0.0991968	0.641190
     29544.19	0.16836	2503362.0	2266558.0	1194299.0	0.0993722	0.640703
     29544.69	0.092567	1380312.0	1250120.0	658942.0	0.0990700	0.640359
     29545.19	0.11266	1681262.0	1522483.0	802571.0	0.0992021	0.640278
     29545.69	0.13088	1950540.0	1766361.0	931251.0	0.0991848	0.640148
     29546.19	0.13459	1999767.0	1811072.0	954956.0	0.0991117	0.640009
     29546.70	0.13254	1972906.0	1786890.0	942425.0	0.0990309	0.639776
     29547.20	0.14441	2147806.0	1945080.0	1026448.0	0.0991437	0.639199
     29547.70	0.15601	2324730.0	2105807.0	1111396.0	0.0989051	0.639082
     29548.20	0.11670	1730672.0	1567122.0	826954.0	0.0992690	0.639247
     29548.71	0.11947	1778365.0	1610628.0	850250.0	0.0990702	0.638849
     29549.21	0.12359	1838752.0	1665365.0	879459.0	0.0990428	0.638493
     29549.71	0.13183	1961676.0	1777126.0	938419.0	0.0988018	0.638556
     29550.21	0.13103	1950158.0	1766307.0	932853.0	0.0990195	0.638399
     29550.71	0.12651	1884782.0	1707813.0	901946.0	0.0985986	0.638414
     29551.22	0.12645	1875188.0	1699069.0	897799.0	0.0986285	0.637890
     29551.72	0.13257	1975915.0	1789680.0	945579.0	0.0989947	0.637995
     29552.22	0.12440	1849064.0	1675071.0	885727.0	0.0988240	0.637202
     29552.72	0.12168	1799660.0	1630526.0	861632.0	0.0986951	0.637830
     29553.23	0.12882	1911128.0	1731323.0	915467.0	0.0988078	0.637207
     29553.73	0.12720	1886244.0	1709134.0	903663.0	0.0986007	0.637286
     29554.23	0.12810	1904305.0	1725315.0	912199.0	0.0987075	0.637307
     29554.73	0.12267	1822959.0	1651947.0	873696.0	0.0985064	0.636977
     29555.24	0.12829	1905815.0	1727003.0	913661.0	0.0985222	0.636683
     29555.74	0.11977	1776968.0	1610103.0	851552.0	0.0986104	0.636993
     29556.24	0.12018	1787044.0	1619085.0	856712.0	0.0987017	0.636515
     29556.74	0.11879	1758002.0	1593342.0	843548.0	0.0983442	0.635972
     29557.24	0.11727	1744517.0	1580787.0	836610.0	0.0985549	0.636320
     29557.75	0.12976	1926473.0	1745943.0	924180.0	0.0983961	0.636143
     29558.25	0.11598	1718573.0	1557116.0	824326.0	0.0986589	0.636025
     29558.75	0.12467	1841389.0	1669010.0	883644.0	0.0982895	0.635932
     29559.26	0.12620	1869111.0	1694124.0	897016.0	0.0982971	0.635847
     29559.76	0.13332	1971954.0	1787683.0	946772.0	0.0981046	0.635617
     29560.26	0.11537	1711140.0	1551075.0	821526.0	0.0982116	0.635540
     29560.76	0.12243	1809818.0	1640879.0	868889.0	0.0979942	0.635772
     29561.27	0.12913	1917228.0	1737751.0	920575.0	0.0982886	0.635349
     29561.77	0.13848	2049501.0	1857573.0	984365.0	0.0983256	0.635029
     29562.27	0.12365	1837141.0	1665110.0	882077.0	0.0983194	0.635367
     29562.77	0.13987	2067563.0	1874668.0	993283.0	0.0979390	0.635171
     29563.28	0.13799	2049101.0	1857487.0	984049.0	0.0981767	0.635304
     29563.78	0.13752	2030067.0	1840283.0	975352.0	0.0981494	0.634876
     29564.28	0.073011	1081754.0	980688.0	519369.0	0.0980847	0.635640
     29564.78	0.12481	1849108.0	1676241.0	888468.0	0.0981496	0.634810
     29565.29	0.12151	1800079.0	1632023.0	864997.0	0.0980102	0.634850
     29565.79	0.13679	2030046.0	1840793.0	975425.0	0.0978620	0.635078
     29566.29	0.12792	1890424.0	1713726.0	908644.0	0.0981312	0.634472
     29566.80	0.13225	1946364.0	1764934.0	935697.0	0.0978497	0.634577
     29567.30	0.13531	2006430.0	1818642.0	964242.0	0.0982670	0.634503
     29567.80	0.13060	1935290.0	1754435.0	930422.0	0.0981103	0.634264
     29568.30	0.11569	1716757.0	1556526.0	825163.0	0.0979806	0.634631
     29568.81	0.12931	1913562.0	1735155.0	920022.0	0.0978697	0.634454
     29569.31	0.13248	1959363.0	1776956.0	942688.0	0.0977176	0.633922
     29569.81	0.12751	1893948.0	1717844.0	911077.0	0.0975935	0.634198
     29570.32	0.12734	1888179.0	1712646.0	908155.0	0.0975733	0.634380
     29570.82	0.12972	1921549.0	1742833.0	924314.0	0.0976197	0.634215
     29571.32	0.12597	1869323.0	1695311.0	899223.0	0.0977101	0.634090
     29571.82	0.13136	1949257.0	1767721.0	937551.0	0.0977571	0.634175
     29572.33	0.11171	1656761.0	1502782.0	796967.0	0.0975464	0.634260
     29572.83	0.12473	1847599.0	1676202.0	889366.0	0.0973564	0.633777
     29573.33	0.12156	1802108.0	1634803.0	867048.0	0.0974348	0.634183
     29573.84	0.12409	1841752.0	1670542.0	886473.0	0.0975692	0.633653
     29574.34	0.12197	1808927.0	1640994.0	870816.0	0.0974317	0.633627
     29574.84	0.12831	1900025.0	1723596.0	914237.0	0.0974542	0.634078
     29575.35	0.12068	1784625.0	1619189.0	859313.0	0.0972829	0.633547
     29575.85	0.11536	1709714.0	1551256.0	823136.0	0.0972612	0.633699
     29576.35	0.11156	1654530.0	1500925.0	796518.0	0.0974354	0.633587
     29576.85	0.11684	1726447.0	1565892.0	830578.0	0.0976099	0.634089
     29577.36	0.11374	1686461.0	1530130.0	812413.0	0.0972796	0.633099
     29577.86	0.11600	1713682.0	1554726.0	825414.0	0.0973449	0.633170
     29578.36	0.11682	1730641.0	1570212.0	833438.0	0.0972812	0.633407
     29578.87	0.12932	1908640.0	1731728.0	919142.0	0.0972712	0.633434
     29579.37	0.12221	1811728.0	1643578.0	872573.0	0.0974055	0.633185
     29579.87	0.13392	1985003.0	1800844.0	956039.0	0.0973650	0.633212
     29580.38	0.12391	1836004.0	1666502.0	884706.0	0.0968647	0.633227
     29580.88	0.11247	1667111.0	1513236.0	803603.0	0.0968418	0.632900
     29581.38	0.12942	1916866.0	1739398.0	923601.0	0.0971525	0.633014
     29581.89	0.13280	1967838.0	1786022.0	948331.0	0.0969447	0.633042
     29582.39	0.13246	1962309.0	1780855.0	945599.0	0.0970283	0.633030
     29582.89	0.13714	2030227.0	1842553.0	978508.0	0.0969955	0.632878
     29583.40	0.13458	1986538.0	1802844.0	957603.0	0.0970280	0.632687
     29583.90	0.13254	1962663.0	1781419.0	946456.0	0.0968920	0.632441
     29584.40	0.11750	1729740.0	1569670.0	833844.0	0.0971057	0.632574
     29584.91	0.11533	1709352.0	1551406.0	824322.0	0.0969527	0.632356
     29585.41	0.12662	1874365.0	1701269.0	904098.0	0.0968955	0.632192
     29585.91	0.13046	1929267.0	1751207.0	930301.0	0.0968349	0.632552
     29586.42	0.14483	2138208.0	1941432.0	1031362.0	0.0965422	0.632546
     29586.92	0.13839	2049434.0	1860826.0	988710.0	0.0965432	0.632375
     29587.42	0.13206	1954278.0	1774320.0	942819.0	0.0966036	0.632298
     29587.93	0.14000	2071012.0	1880106.0	998811.0	0.0967092	0.632518
     29588.43	0.13973	2066791.0	1876213.0	997707.0	0.0967418	0.631551
     29588.93	0.11368	1681552.0	1526742.0	811581.0	0.0965811	0.631907
     29589.44	0.13011	1926238.0	1748706.0	929603.0	0.0966928	0.631874
     29589.94	0.13183	1948912.0	1769843.0	940777.0	0.0963804	0.631940
     29590.45	0.12528	1853078.0	1682416.0	894651.0	0.0966172	0.631552
     29590.95	0.15030	2222631.0	2017883.0	1072853.0	0.0966427	0.631727
     29591.45	0.10376	1532891.0	1392150.0	740440.0	0.0963062	0.631360
     29591.96	0.12979	1913212.0	1737327.0	924184.0	0.0964358	0.631192
     29592.46	0.11633	1720164.0	1562007.0	830885.0	0.0964481	0.631235
     29592.96	0.12371	1831056.0	1662838.0	884540.0	0.0963671	0.631213
     29593.47	0.12872	1899891.0	1725747.0	918291.0	0.0961365	0.630901
     29593.97	0.12512	1849503.0	1679780.0	893702.0	0.0962541	0.631046
     29594.48	0.13116	1939204.0	1761319.0	937526.0	0.0962146	0.630574
     29594.98	0.13759	2027632.0	1841506.0	979841.0	0.0962849	0.630949
     29595.48	0.12402	1830386.0	1662954.0	885007.0	0.0959313	0.630755
     29595.99	0.11422	1681396.0	1527148.0	813116.0	0.0962225	0.630283
     29596.49	0.11996	1764468.0	1602965.0	853280.0	0.0959942	0.630523
     29596.99	0.11766	1736204.0	1577185.0	839791.0	0.0960595	0.630244
     29597.50	0.12025	1754999.0	1593891.0	848817.0	0.0962901	0.630090
     29598.00	0.12980	1908556.0	1733961.0	923472.0	0.0959385	0.630023
     29598.51	0.12334	1823567.0	1656558.0	882523.0	0.0960525	0.629712
     29599.01	0.12077	1784029.0	1621067.0	864102.0	0.0957897	0.629149
     29599.51	0.12323	1813593.0	1647935.0	878069.0	0.0957870	0.629553
     29600.02	0.11849	1746360.0	1586861.0	846050.0	0.0957758	0.628935
     29600.52	0.12794	1888944.0	1716142.0	914874.0	0.0959392	0.629048
     29601.03	0.13529	1995515.0	1813087.0	966780.0	0.0958712	0.628815
     29601.53	0.12893	1899235.0	1725758.0	920470.0	0.0957848	0.628537
     29602.03	0.13128	1938931.0	1761780.0	939906.0	0.0958121	0.628300
     29602.54	0.12231	1797176.0	1632963.0	871139.0	0.0958204	0.628350
     29603.04	0.13167	1937074.0	1760290.0	939210.0	0.0957000	0.628195
     29603.55	0.11443	1688744.0	1534851.0	819190.0	0.0955517	0.627873
     29604.05	0.13078	1933025.0	1756214.0	937286.0	0.0959258	0.627927
     29604.55	0.12391	1826637.0	1660114.0	885969.0	0.0955903	0.627960
     29605.06	0.12636	1859282.0	1689799.0	902296.0	0.0955808	0.627422
     29605.56	0.12379	1824136.0	1658083.0	885462.0	0.0954443	0.627308
     29606.07	0.12415	1823205.0	1657450.0	885307.0	0.0953157	0.627101
     29606.57	0.13458	1984424.0	1804024.0	963694.0	0.0953090	0.627001
     29607.07	0.12714	1873052.0	1702701.0	909738.0	0.0953534	0.626814
     29607.58	0.13376	1973253.0	1793493.0	958524.0	0.0955183	0.626526
     29608.08	0.12837	1894767.0	1722008.0	920222.0	0.0956048	0.626631
     29608.59	0.12784	1885397.0	1713666.0	916212.0	0.0955035	0.626142
     29609.09	0.13738	2024941.0	1840671.0	984207.0	0.0954104	0.626049
     29609.60	0.12945	1908184.0	1734761.0	927635.0	0.0952824	0.625987
     29610.10	0.13055	1924993.0	1749956.0	936042.0	0.0953317	0.625686
     29610.60	0.12716	1871411.0	1701306.0	910272.0	0.0952965	0.625408
     29611.11	0.12213	1802115.0	1638114.0	876649.0	0.0954154	0.625194
     29611.61	0.12266	1801466.0	1637516.0	876260.0	0.0954203	0.625273
     29612.12	0.12191	1794413.0	1631405.0	873127.0	0.0952363	0.625116
     29612.62	0.12290	1810406.0	1646608.0	881631.0	0.0948337	0.624699
     29613.13	0.12602	1851215.0	1682944.0	901182.0	0.0952975	0.624593
     29613.63	0.12336	1813490.0	1649306.0	883387.0	0.0948986	0.624346
     29614.13	0.11798	1737661.0	1580568.0	846755.0	0.0947557	0.624128
     29614.64	0.12416	1824082.0	1658481.0	888872.0	0.0951747	0.623704
     29615.14	0.11677	1719289.0	1563880.0	838229.0	0.0947409	0.623634
     29615.65	0.11561	1701829.0	1547595.0	829730.0	0.0950014	0.623357
     29616.15	0.12007	1765760.0	1606110.0	861416.0	0.0947661	0.622993
     29616.66	0.11113	1631315.0	1483513.0	795743.0	0.0949735	0.622892
     29617.16	0.12034	1764458.0	1604598.0	860754.0	0.0949703	0.622820
     29617.67	0.11125	1633340.0	1485432.0	797415.0	0.0949214	0.622086
     29618.17	0.12468	1830418.0	1664852.0	893574.0	0.0948081	0.622262
     29618.68	0.10149	1494993.0	1359456.0	729867.0	0.0950369	0.621978
     29619.18	0.12435	1828759.0	1664337.0	893507.0	0.0942107	0.622028
     29619.68	0.12442	1831334.0	1665459.0	894861.0	0.0949439	0.621188
     29620.19	0.12341	1814628.0	1650833.0	886938.0	0.0946005	0.621260
     29620.69	0.12131	1784400.0	1622905.0	872165.0	0.0948645	0.620994
     29621.20	0.12644	1859555.0	1691542.0	909199.0	0.0946967	0.620832
     29621.70	0.12625	1857833.0	1690285.0	908392.0	0.0945136	0.620976
     29622.21	0.14548	2140613.0	1947103.0	1046855.0	0.0947496	0.620552
     29622.71	0.13539	1988668.0	1809642.0	972990.0	0.0943360	0.620511
     29623.22	0.12975	1902529.0	1730858.0	930696.0	0.0945668	0.620440
     29623.72	0.12694	1862078.0	1694042.0	911547.0	0.0945757	0.619730
     29624.23	0.12302	1802085.0	1639521.0	882293.0	0.0945402	0.619635
     29624.73	0.13154	1936510.0	1761506.0	948237.0	0.0947183	0.619320
     29625.24	0.12527	1839307.0	1673353.0	900715.0	0.0945595	0.619396
     29625.74	0.11960	1749960.0	1592310.0	857428.0	0.0944071	0.619004
     29626.25	0.13950	2033805.0	1850484.0	996654.0	0.0944612	0.618799
     29626.75	0.13783	2027197.0	1844361.0	993695.0	0.0945212	0.618458
     29627.26	0.13075	1919105.0	1746039.0	940533.0	0.0945091	0.618658
     29627.76	0.12947	1895656.0	1724935.0	929092.0	0.0943756	0.618737
     29628.27	0.13628	1996987.0	1817154.0	979299.0	0.0943680	0.618190
     29628.77	0.12270	1799902.0	1637769.0	883008.0	0.0943973	0.617756
     29629.28	0.13080	1913665.0	1741362.0	938701.0	0.0943527	0.617926
     29629.78	0.12978	1895826.0	1725026.0	930656.0	0.0944125	0.617108
     29630.28	0.14177	2069447.0	1883446.0	1015660.0	0.0941783	0.617564
     29630.79	0.12725	1857411.0	1690074.0	911772.0	0.0944113	0.617138
     29631.29	0.13288	1949078.0	1773995.0	957406.0	0.0941224	0.616762
     29631.80	0.11920	1750647.0	1593493.0	859821.0	0.0940570	0.616960
     29632.31	0.12760	1873333.0	1704853.0	920656.0	0.0942403	0.616148
     29632.81	0.11593	1700408.0	1547609.0	835370.0	0.0941571	0.616592
     29633.32	0.12846	1886093.0	1716847.0	926997.0	0.0940180	0.616294
     29633.82	0.12037	1761110.0	1603235.0	865822.0	0.0939208	0.616099
     29634.33	0.13289	1950758.0	1776130.0	959997.0	0.0937812	0.615262
     29634.83	0.13273	1944913.0	1770551.0	956380.0	0.0939264	0.615891
     29635.34	0.12440	1799435.0	1638302.0	885296.0	0.0938124	0.615494
     29635.84	0.12350	1789776.0	1629660.0	880804.0	0.0937191	0.615292
     29636.35	0.12354	1794562.0	1634006.0	883464.0	0.0937263	0.614939
     29636.85	0.11665	1698154.0	1546051.0	836459.0	0.0938378	0.614282
     29637.36	0.12614	1836622.0	1672423.0	904501.0	0.0936545	0.614645
     29637.86	0.12354	1808575.0	1646737.0	891024.0	0.0937435	0.614180
     29638.37	0.11795	1717824.0	1563998.0	846464.0	0.0938130	0.613933
     29638.87	0.12562	1838688.0	1674102.0	905963.0	0.0937754	0.614034
     29639.38	0.12183	1784208.0	1624984.0	879597.0	0.0934766	0.613789
     29639.88	0.11484	1683163.0	1532989.0	829818.0	0.0934553	0.613768
     29640.39	0.12348	1806828.0	1645179.0	890333.0	0.0937236	0.614009
     29640.89	0.11946	1744478.0	1588798.0	860128.0	0.0934776	0.613652
     29641.40	0.12785	1875433.0	1708156.0	925110.0	0.0934251	0.613257
     29641.90	0.12920	1893347.0	1724761.0	934062.0	0.0932577	0.613301
     29642.41	0.13971	2049721.0	1867023.0	1011582.0	0.0933585	0.612830
     29642.91	0.11953	1749196.0	1592867.0	863175.0	0.0936207	0.612673
     29643.42	0.13285	1941990.0	1768626.0	958237.0	0.0935102	0.612863
     29643.93	0.12631	1846222.0	1681833.0	911300.0	0.0932571	0.612767
     29644.43	0.13372	1956870.0	1782230.0	966106.0	0.0934809	0.612347
     29644.94	0.11488	1683131.0	1532925.0	831458.0	0.0934781	0.611752
     29645.44	0.12361	1808711.0	1647152.0	893277.0	0.0935667	0.611906
     29645.95	0.12664	1852570.0	1687937.0	915104.0	0.0930668	0.612225
     29646.45	0.12602	1845910.0	1681942.0	912308.0	0.0930233	0.611727
     29646.96	0.12352	1807048.0	1646016.0	892906.0	0.0933368	0.611632
     29647.46	0.12315	1803074.0	1643096.0	891360.0	0.0929107	0.611589
     29647.97	0.13290	1947426.0	1773871.0	962987.0	0.0933443	0.610880
     29648.48	0.13985	2047851.0	1865910.0	1012695.0	0.0930421	0.611134
     29648.98	0.12206	1784548.0	1625682.0	882301.0	0.0932377	0.611149
     29649.49	0.12124	1769313.0	1611912.0	874867.0	0.0931703	0.611104
     29649.99	0.13625	1990634.0	1814025.0	984393.0	0.0929050	0.611278
     29650.50	0.12277	1797256.0	1637795.0	888910.0	0.0929102	0.611110
     29651.00	0.13154	1924887.0	1754209.0	952558.0	0.0928492	0.610622
     29651.51	0.12721	1860867.0	1695824.0	920953.0	0.0928737	0.610515
     29652.02	0.13214	1932318.0	1761077.0	956428.0	0.0927948	0.610475
     29652.52	0.15885	2327590.0	2121110.0	1152134.0	0.0928939	0.610324
     29653.03	0.10341	1514512.0	1380316.0	749575.0	0.0927808	0.610561
     29653.53	0.12277	1797469.0	1638243.0	889879.0	0.0927552	0.610294
     29654.04	0.11600	1694375.0	1544379.0	839140.0	0.0926921	0.610000
     29654.54	0.11770	1722477.0	1569807.0	852969.0	0.0928107	0.609985
     29655.05	0.13275	1938768.0	1767402.0	960308.0	0.0925420	0.610012
     29655.56	0.12585	1840852.0	1678166.0	912027.0	0.0925270	0.609787
     29656.06	0.13374	1958364.0	1784849.0	969931.0	0.0927756	0.609864
     29656.57	0.13493	1972375.0	1797429.0	976849.0	0.0928811	0.609781
     29657.07	0.11878	1735356.0	1581542.0	859696.0	0.0928123	0.609577
     29657.58	0.099349	1448285.0	1320098.0	717370.0	0.0926741	0.609870
     29658.09	0.10072	1467564.0	1337821.0	727071.0	0.0925617	0.609773
     29658.59	0.10615	1548413.0	1411354.0	767180.0	0.0926810	0.609583
     29659.10	0.11832	1728337.0	1575586.0	856431.0	0.0925324	0.609609
     29659.60	0.12196	1781654.0	1624153.0	883058.0	0.0925557	0.609351
     29660.11	0.13275	1939306.0	1767803.0	961298.0	0.0925926	0.609208
     29660.62	0.11302	1654299.0	1508079.0	820293.0	0.0925407	0.608930
     29661.12	0.12596	1835450.0	1673448.0	909911.0	0.0924035	0.609295
     29661.63	0.11673	1704100.0	1553654.0	845306.0	0.0924275	0.608666
     29662.13	0.11650	1704417.0	1554256.0	845464.0	0.0922261	0.608867
     29662.64	0.13595	1987227.0	1812358.0	986019.0	0.0921114	0.608708
     29663.15	0.13365	1953233.0	1781255.0	969384.0	0.0921678	0.608413
     29663.65	0.13612	1985620.0	1811136.0	985512.0	0.0919769	0.608548
     29664.16	0.13649	1991311.0	1816173.0	988380.0	0.0920617	0.608420
     29664.66	0.14316	2088212.0	1904675.0	1036866.0	0.0919968	0.608109
     29665.17	0.12171	1780414.0	1623763.0	883578.0	0.0920996	0.608522
     29665.68	0.11777	1715572.0	1565072.0	851947.0	0.0918147	0.608163
     29666.18	0.11886	1730692.0	1578842.0	859543.0	0.0918297	0.608046
     29666.69	0.12893	1877311.0	1712088.0	932049.0	0.0921268	0.608084
     29667.19	0.12837	1866112.0	1702281.0	926623.0	0.0918880	0.608178
     29667.70	0.13605	1979525.0	1805737.0	983163.0	0.0918881	0.607949
     29668.21	0.14212	2068541.0	1886951.0	1027684.0	0.0918812	0.607655
     29668.71	0.15280	2228232.0	2032132.0	1106945.0	0.0921230	0.607482
     29669.22	0.13122	1907196.0	1740228.0	947627.0	0.0916180	0.607810
     29669.73	0.10661	1541922.0	1406528.0	766083.0	0.0919054	0.607589
     29670.23	0.12046	1735342.0	1582842.0	862483.0	0.0919825	0.607162
     29670.74	0.14211	2010579.0	1833816.0	999482.0	0.0920237	0.606917
     29671.25	0.13026	1851709.0	1689173.0	920545.0	0.0918699	0.607028
     29671.75	0.13452	1923623.0	1754949.0	956401.0	0.0917706	0.607018
     29672.26	0.12628	1817914.0	1658628.0	903974.0	0.0916989	0.606945
     29672.76	0.12976	1879553.0	1714483.0	934815.0	0.0919224	0.606518
     29673.27	0.12640	1830316.0	1669839.0	910194.0	0.0917614	0.606825
     29673.78	0.12379	1797819.0	1640095.0	893921.0	0.0918201	0.606892
     29674.28	0.11981	1744299.0	1591995.0	868224.0	0.0913648	0.606293
     29674.79	0.12877	1872817.0	1708408.0	931532.0	0.0918818	0.606487
     29675.30	0.11899	1732123.0	1580821.0	862141.0	0.0914035	0.606281
     29675.80	0.12920	1846798.0	1685335.0	919218.0	0.0914890	0.606196
     29676.31	0.12543	1811898.0	1653436.0	902229.0	0.0915194	0.605742
     29676.82	0.13200	1907297.0	1740872.0	949529.0	0.0913009	0.606175
     29677.32	0.11930	1730541.0	1579277.0	861705.0	0.0914669	0.605809
     29677.83	0.11814	1715331.0	1565514.0	854217.0	0.0913919	0.605784
     29678.34	0.12109	1761730.0	1607867.0	877573.0	0.0913878	0.605504
     29678.84	0.11836	1722015.0	1571532.0	857734.0	0.0914442	0.605512
     29679.35	0.11626	1692012.0	1544007.0	842563.0	0.0915374	0.605688
     29679.86	0.13057	1898762.0	1733043.0	946062.0	0.0913233	0.605326
     29680.36	0.12056	1757687.0	1604702.0	876056.0	0.0910607	0.605263
     29680.87	0.12332	1793055.0	1636928.0	893548.0	0.0910996	0.605377
     29681.38	0.11779	1712045.0	1562790.0	853169.0	0.0912159	0.605270
     29681.88	0.12379	1800338.0	1643456.0	897390.0	0.0911731	0.605066
     29682.39	0.13023	1894242.0	1728782.0	944078.0	0.0914016	0.604964
     29682.90	0.12806	1861906.0	1699606.0	928370.0	0.0912042	0.604721
     29683.40	0.13026	1897110.0	1731484.0	946136.0	0.0913528	0.604348
     29683.91	0.12685	1840471.0	1680215.0	917487.0	0.0910998	0.605039
     29684.42	0.13096	1907364.0	1741114.0	951352.0	0.0911970	0.604396
     29684.92	0.12758	1852659.0	1691508.0	924084.0	0.0910015	0.604573
     29685.43	0.12584	1830723.0	1671578.0	913398.0	0.0909429	0.604352
     29685.94	0.11944	1737699.0	1586828.0	867264.0	0.0908248	0.604149
     29686.44	0.12344	1792684.0	1636727.0	894821.0	0.0910154	0.603830
     29686.95	0.13341	1936943.0	1768246.0	966681.0	0.0911229	0.603875
     29687.46	0.11513	1676939.0	1531315.0	837150.0	0.0908433	0.603879
     29687.97	0.12561	1826939.0	1668385.0	912514.0	0.0907858	0.603408
     29688.47	0.12716	1846905.0	1686896.0	922429.0	0.0906211	0.603635
     29688.98	0.12643	1838983.0	1679442.0	918287.0	0.0907511	0.603707
     29689.49	0.13096	1906555.0	1741463.0	952264.0	0.0905724	0.603639
     29689.99	0.13057	1899701.0	1734521.0	948664.0	0.0909652	0.603432
     29690.50	0.12864	1871875.0	1709213.0	935027.0	0.0909076	0.603213
     29691.01	0.13228	1922244.0	1755512.0	960605.0	0.0907327	0.602953
     29691.51	0.13503	1963290.0	1792863.0	981251.0	0.0908079	0.602741
     29692.02	0.12355	1788771.0	1633777.0	894017.0	0.0906343	0.602925
     29692.53	0.13393	1943617.0	1775002.0	971543.0	0.0907491	0.602671
     29693.04	0.11587	1681098.0	1535668.0	840608.0	0.0904817	0.602595
     29693.54	0.12267	1784745.0	1630233.0	892708.0	0.0905526	0.602219
     29694.05	0.13240	1925059.0	1758924.0	962937.0	0.0902544	0.602470
     29694.56	0.11756	1704448.0	1557532.0	852958.0	0.0901388	0.602147
     29695.06	0.12588	1826702.0	1668869.0	913853.0	0.0903660	0.602232
     29695.57	0.12910	1875854.0	1713626.0	938840.0	0.0904524	0.601722
     29696.08	0.11732	1701933.0	1555243.0	851924.0	0.0901329	0.601890
     29696.59	0.12452	1806889.0	1650736.0	904797.0	0.0903853	0.601266
     29697.09	0.10325	1500802.0	1371190.0	751630.0	0.0903207	0.601190
     29697.60	0.11296	1641665.0	1500063.0	822565.0	0.0902039	0.600835
     29698.11	0.12531	1817233.0	1660306.0	910256.0	0.0903131	0.601031
     29698.62	0.11986	1742480.0	1592255.0	872601.0	0.0901581	0.601428
     29699.12	0.11213	1629698.0	1489350.0	816538.0	0.0900549	0.601022
     29699.63	0.11231	1631184.0	1490683.0	817069.0	0.0900717	0.601266
     29700.14	0.11209	1624630.0	1484300.0	813929.0	0.0903368	0.600825
     29700.65	0.12157	1766246.0	1613864.0	885428.0	0.0902251	0.600315
     29701.15	0.12125	1760926.0	1609329.0	882975.0	0.0900225	0.600276
     29701.66	0.13878	2007106.0	1834339.0	1006711.0	0.0900097	0.599996
     29702.17	0.12154	1765263.0	1613040.0	885320.0	0.0901791	0.599927
     29702.67	0.12981	1879205.0	1717703.0	942556.0	0.0898609	0.600148
     29703.18	0.12673	1837835.0	1679684.0	922027.0	0.0899826	0.599786
     29703.69	0.13754	1989163.0	1817971.0	998064.0	0.0899929	0.599659
     29704.20	0.12847	1855645.0	1696130.0	931165.0	0.0898832	0.599668
     29704.70	0.11827	1717650.0	1569730.0	862301.0	0.0900534	0.599055
     29705.21	0.13890	2007043.0	1834292.0	1007358.0	0.0900039	0.599328
     29705.72	0.12648	1833838.0	1676332.0	920669.0	0.0898030	0.599263
     29706.23	0.13533	1963252.0	1794027.0	985215.0	0.0901395	0.599358
     29706.74	0.13127	1905335.0	1741507.0	956853.0	0.0899070	0.598856
     29707.24	0.12195	1769346.0	1617573.0	888781.0	0.0896831	0.598831
     29707.75	0.13224	1917788.0	1753271.0	963708.0	0.0896893	0.598450
     29708.26	0.13366	1936206.0	1770016.0	973220.0	0.0897418	0.598134
     29708.77	0.12524	1810669.0	1655491.0	909730.0	0.0895987	0.598705
     29709.27	0.13789	1984894.0	1814623.0	997840.0	0.0896878	0.598040
     29709.78	0.13738	1992252.0	1821623.0	1001790.0	0.0895378	0.597939
     29710.29	0.13005	1884022.0	1722592.0	947625.0	0.0895787	0.597627
     29710.80	0.13174	1909216.0	1745476.0	959766.0	0.0896654	0.598093
     29711.30	0.12854	1856816.0	1697832.0	934253.0	0.0895110	0.597360
     29711.81	0.13115	1899501.0	1736953.0	955915.0	0.0894588	0.597219
     29712.32	0.12311	1781175.0	1628777.0	896422.0	0.0894438	0.597173
     29712.83	0.13826	2004263.0	1832780.0	1008904.0	0.0894425	0.596969
     29713.34	0.12115	1749100.0	1599574.0	880218.0	0.0893640	0.597323
     29713.84	0.12666	1832436.0	1675653.0	922640.0	0.0894433	0.596719
     29714.35	0.12180	1764284.0	1613853.0	888231.0	0.0891205	0.597148
     29714.86	0.12316	1781854.0	1629529.0	897077.0	0.0893634	0.596905
     29715.37	0.13057	1891992.0	1730008.0	952758.0	0.0895042	0.596520
     29715.88	0.12137	1756031.0	1605679.0	884490.0	0.0895094	0.596291
     29716.38	0.12999	1881651.0	1721093.0	948095.0	0.0891900	0.596260
     29716.89	0.12151	1749274.0	1600283.0	881889.0	0.0890204	0.595870
     29717.40	0.12797	1851805.0	1693570.0	933400.0	0.0893221	0.595760
     29717.91	0.12156	1758243.0	1608339.0	886451.0	0.0891130	0.595731
     29718.41	0.12093	1744988.0	1595728.0	879770.0	0.0894176	0.595425
     29718.92	0.12437	1786118.0	1633586.0	900617.0	0.0892670	0.595453
     29719.43	0.12000	1732664.0	1585171.0	873731.0	0.0889678	0.595675
     29719.94	0.12546	1816057.0	1661010.0	915758.0	0.0892418	0.595429
     29720.45	0.11040	1597928.0	1462025.0	806659.0	0.0888853	0.594677
     29720.96	0.12641	1826840.0	1671233.0	922011.0	0.0890260	0.594760
     29721.46	0.11473	1661069.0	1519700.0	838589.0	0.0889484	0.594548
     29721.97	0.13106	1897607.0	1735984.0	958124.0	0.0890192	0.594352
     29722.48	0.12279	1777737.0	1626540.0	897694.0	0.0888861	0.594381
     29722.99	0.13716	1982656.0	1813717.0	1001218.0	0.0890590	0.594161
     29723.50	0.13367	1931262.0	1766817.0	975628.0	0.0889941	0.593854
     29724.00	0.13333	1931221.0	1767284.0	975775.0	0.0887085	0.593967
     29724.51	0.12217	1763711.0	1614077.0	891420.0	0.0886568	0.593703
     29725.02	0.13137	1901656.0	1739563.0	960976.0	0.0890912	0.593440
     29725.53	0.11822	1708252.0	1563268.0	863798.0	0.0886921	0.593195
     29726.04	0.12192	1764360.0	1614286.0	891716.0	0.0888953	0.593500
     29726.55	0.12684	1834349.0	1678957.0	927909.0	0.0885169	0.592994
     29727.05	0.12635	1824499.0	1669607.0	922637.0	0.0887172	0.593108
     29727.56	0.11771	1699884.0	1555534.0	860001.0	0.0887411	0.592641
     29728.07	0.12940	1859615.0	1702178.0	941418.0	0.0884609	0.592277
     29728.58	0.13201	1906660.0	1745035.0	965016.0	0.0885784	0.592385
     29729.09	0.12255	1766828.0	1616784.0	894238.0	0.0887469	0.592222
     29729.60	0.13495	1928232.0	1764717.0	976237.0	0.0886132	0.592040
     29730.10	0.11261	1620487.0	1483409.0	820524.0	0.0883839	0.592155
     29730.61	0.14001	2017466.0	1846791.0	1021487.0	0.0883927	0.592190
     29731.12	0.12512	1797276.0	1645420.0	910403.0	0.0882765	0.591864
     29731.63	0.13873	2003792.0	1833583.0	1014979.0	0.0887694	0.591404
     29732.14	0.13838	1986071.0	1817988.0	1006426.0	0.0884279	0.591325
     29732.65	0.18464	2658573.0	2433378.0	1346877.0	0.0885091	0.591492
     29733.15	0.13061	1880768.0	1721918.0	952951.0	0.0882414	0.591631
     29733.66	0.060539	872896.0	799131.0	442746.0	0.0882915	0.590529
     29734.17	0.11423	1642665.0	1504198.0	832881.0	0.0880601	0.591124
     29734.68	0.12144	1748250.0	1600266.0	886333.0	0.0884454	0.590832
     29735.19	0.12216	1763065.0	1614278.0	894191.0	0.0881660	0.590724
     29735.70	0.12688	1819488.0	1665627.0	922794.0	0.0883535	0.590551
     29736.21	0.14126	2037085.0	1865074.0	1033027.0	0.0882191	0.590807
     29736.71	0.15857	2286052.0	2093225.0	1160400.0	0.0881204	0.589941
     29737.22	0.13393	1928021.0	1765013.0	978112.0	0.0883360	0.590289
     29737.73	0.066946	963904.0	882545.0	489077.0	0.0881819	0.590290
     29738.24	0.094882	1370960.0	1255191.0	695828.0	0.0882235	0.589941
     29738.75	0.11796	1701140.0	1557724.0	863982.0	0.0880728	0.589429
     29739.26	0.10613	1526031.0	1398062.0	775297.0	0.0875833	0.589596
     29739.77	0.14184	2042141.0	1869700.0	1036510.0	0.0882208	0.589919
     29740.28	0.13683	1944082.0	1780769.0	987657.0	0.0877446	0.589465
     29740.78	0.14518	2062306.0	1889041.0	1047855.0	0.0877555	0.589324
     29741.29	0.092283	1317422.0	1206651.0	669416.0	0.0878280	0.589198
     29741.80	0.078498	1118076.0	1023931.0	568274.0	0.0879602	0.588801
     29742.31	0.14000	2005963.0	1837327.0	1019866.0	0.0878124	0.588641
     29742.82	0.11808	1698168.0	1555248.0	863129.0	0.0879150	0.588826
     29743.33	0.12559	1810807.0	1658824.0	921388.0	0.0876637	0.587983
     29743.84	0.14796	2132953.0	1953332.0	1084696.0	0.0879708	0.588237
     29744.35	0.14015	2019283.0	1850030.0	1026972.0	0.0875406	0.588587
     29744.86	0.12612	1816638.0	1664223.0	924379.0	0.0876292	0.587991
     29745.36	0.11526	1661041.0	1521784.0	845117.0	0.0875612	0.588164
     29745.87	0.12915	1858220.0	1701726.0	945732.0	0.0879760	0.587439
     29746.38	0.11361	1624635.0	1488467.0	826996.0	0.0875364	0.587702
     29746.89	0.13625	1957017.0	1793170.0	996326.0	0.0874364	0.587666
     29747.40	0.12846	1847072.0	1691846.0	940358.0	0.0877814	0.587315
     29747.91	0.14875	2139540.0	1960085.0	1089601.0	0.0876030	0.587176
     29748.42	0.19952	2861653.0	2622116.0	1457314.0	0.0874178	0.587387
     29748.93	0.13186	1893369.0	1734759.0	964192.0	0.0874893	0.587333
     29749.44	0.061594	886886.0	812646.0	452022.0	0.0874209	0.586565
     29749.95	0.11585	1666002.0	1526651.0	848923.0	0.0873503	0.586863
     29750.45	0.14162	2034915.0	1864671.0	1036931.0	0.0873694	0.586819
     29750.96	0.13077	1884237.0	1726258.0	960139.0	0.0875669	0.586633
     29751.47	0.13123	1891122.0	1732642.0	964223.0	0.0875229	0.586080
     29751.98	0.13615	1947942.0	1784758.0	993104.0	0.0874906	0.586203
     29752.49	0.16128	2315658.0	2121767.0	1180716.0	0.0874446	0.586128
     29753.00	0.10569	1519282.0	1392014.0	774527.0	0.0874862	0.586254
     29753.51	0.11003	1582861.0	1450828.0	807221.0	0.0870995	0.586292
     29754.02	0.12287	1763806.0	1616666.0	899953.0	0.0871080	0.585779
     29754.53	0.12070	1736470.0	1591837.0	886259.0	0.0869656	0.585635
     29755.04	0.13653	1956608.0	1793412.0	998359.0	0.0870924	0.585762
     29755.55	0.12893	1847096.0	1693437.0	942640.0	0.0868545	0.585831
     29756.06	0.11895	1706456.0	1564266.0	871238.0	0.0870020	0.585257
     29756.57	0.14126	2030447.0	1861401.0	1036640.0	0.0869265	0.585345
     29757.07	0.11202	1608110.0	1473998.0	820952.0	0.0870811	0.585269
     29757.58	0.12267	1763633.0	1616847.0	900695.0	0.0868979	0.585067
     29758.09	0.11502	1650848.0	1513785.0	843210.0	0.0866760	0.585152
     29758.60	0.11450	1644928.0	1508011.0	840222.0	0.0869051	0.584881
     29759.11	0.13390	1923774.0	1763258.0	982419.0	0.0871256	0.584901
     29759.62	0.11708	1681249.0	1541193.0	858996.0	0.0869802	0.584548
     29760.13	0.12250	1758748.0	1612524.0	898707.0	0.0868015	0.584599
     29760.64	0.11755	1684804.0	1545202.0	861047.0	0.0864946	0.584761
     29761.15	0.11870	1705450.0	1563222.0	871541.0	0.0870799	0.584241
     29761.66	0.12386	1780130.0	1632533.0	909934.0	0.0865536	0.584516
     29762.17	0.13705	1970082.0	1806195.0	1006971.0	0.0868527	0.584276
     29762.68	0.11802	1696828.0	1555809.0	867383.0	0.0867650	0.584270
     29763.19	0.13072	1872874.0	1717673.0	957981.0	0.0865037	0.583898
     29763.70	0.12506	1797633.0	1648521.0	919263.0	0.0865923	0.584062
     29764.21	0.13228	1896675.0	1739221.0	970507.0	0.0866650	0.583374
     29764.72	0.12965	1854079.0	1700430.0	948650.0	0.0865069	0.583597
     29765.23	0.12712	1823350.0	1671872.0	932814.0	0.0867315	0.583493
     29765.74	0.12848	1834433.0	1682453.0	938852.0	0.0864826	0.583350
     29766.25	0.11826	1697920.0	1557260.0	868961.0	0.0864761	0.583385
     29766.76	0.12316	1758395.0	1612529.0	899760.0	0.0865977	0.583431
     29767.26	0.12895	1841568.0	1689316.0	942793.0	0.0862937	0.583232
     29767.77	0.13021	1857570.0	1703428.0	951168.0	0.0866265	0.582707
     29768.28	0.12502	1787015.0	1639183.0	914971.0	0.0863487	0.583061
     29768.79	0.12103	1733820.0	1590374.0	887947.0	0.0863579	0.582812
     29769.30	0.13336	1899464.0	1742498.0	973172.0	0.0862520	0.582514
     29769.81	0.12412	1772500.0	1626261.0	907583.0	0.0861075	0.583254
     29770.32	0.13333	1904815.0	1747357.0	975913.0	0.0862805	0.582486
     29770.83	0.12834	1828336.0	1677162.0	936599.0	0.0863032	0.582603
     29771.34	0.12640	1809942.0	1660679.0	927606.0	0.0860682	0.582375
     29771.85	0.13618	1942902.0	1782732.0	995835.0	0.0860357	0.582321
     29772.36	0.12990	1843048.0	1690664.0	944347.0	0.0862994	0.582383
     29772.87	0.12468	1752089.0	1607565.0	897966.0	0.0860882	0.582344
     29773.38	0.12309	1753426.0	1608386.0	898706.0	0.0863404	0.582031
     29773.89	0.12550	1781111.0	1634175.0	913032.0	0.0860992	0.582122
     29774.40	0.12083	1718954.0	1576894.0	881545.0	0.0862589	0.581536
     29774.91	0.12293	1759831.0	1615163.0	902604.0	0.0857819	0.581907
     29775.42	0.12858	1837120.0	1685759.0	941909.0	0.0859832	0.582063
     29775.93	0.12976	1856156.0	1703147.0	951913.0	0.0860300	0.581759
     29776.44	0.11233	1610160.0	1477599.0	825904.0	0.0859151	0.581695
     29776.95	0.12013	1712392.0	1571117.0	878235.0	0.0861044	0.581628
     29777.46	0.11965	1707984.0	1567443.0	876260.0	0.0858681	0.581538
     29777.97	0.10667	1518823.0	1394438.0	779888.0	0.0854442	0.581096
     29778.48	0.12003	1707777.0	1567706.0	876624.0	0.0855791	0.581291
     29778.99	0.11229	1605093.0	1473126.0	824013.0	0.0857950	0.580956
     29779.50	0.11559	1652637.0	1516935.0	848333.0	0.0856803	0.581174
     29780.01	0.13275	1897740.0	1741319.0	973591.0	0.0860208	0.581407
     29780.52	0.12400	1774974.0	1629152.0	911354.0	0.0857261	0.580884
     29781.03	0.10556	1505344.0	1381624.0	773045.0	0.0857618	0.580678
     29781.54	0.10602	1509832.0	1386165.0	775582.0	0.0854574	0.580683
     29782.05	0.14056	1999550.0	1835490.0	1026974.0	0.0856107	0.580695
     29782.56	0.13336	1901014.0	1745364.0	976479.0	0.0854243	0.580765
     29783.07	0.12488	1782788.0	1636973.0	915854.0	0.0853296	0.580747
     29783.58	0.13933	1974516.0	1812676.0	1014244.0	0.0855191	0.580661
     29784.09	0.12941	1840537.0	1689494.0	945394.0	0.0856283	0.580583
     29784.60	0.11760	1675152.0	1538021.0	860906.0	0.0854074	0.580266
     29785.12	0.12632	1791214.0	1645128.0	920777.0	0.0850754	0.580356
     29785.63	0.13858	1981457.0	1819050.0	1018391.0	0.0855180	0.580090
     29786.14	0.13197	1880350.0	1726823.0	966900.0	0.0851746	0.579944
     29786.65	0.11672	1666193.0	1529734.0	856663.0	0.0854475	0.579805
     29787.16	0.13293	1900382.0	1745010.0	977169.0	0.0852946	0.579856
     29787.67	0.12814	1832777.0	1682786.0	942307.0	0.0853815	0.579875
     29788.18	0.14343	2049191.0	1881681.0	1053609.0	0.0852796	0.579944
     29788.69	0.13483	1927716.0	1770156.0	991354.0	0.0852682	0.579751
     29789.20	0.13623	1947455.0	1788906.0	1002118.0	0.0849191	0.579488
     29789.71	0.12680	1809953.0	1662049.0	931261.0	0.0852497	0.579267
     29790.22	0.14286	2036141.0	1869763.0	1047423.0	0.0852447	0.579479
     29790.73	0.13703	1952047.0	1793162.0	1004671.0	0.0848980	0.579320
     29791.24	0.12116	1730192.0	1589179.0	890391.0	0.0850149	0.579312
     29791.75	0.12444	1778880.0	1633864.0	915514.0	0.0850362	0.579217
     29792.26	0.13622	1942841.0	1784495.0	1000160.0	0.0850159	0.578975
     29792.77	0.13178	1875314.0	1722856.0	965570.0	0.0847927	0.579020
     29793.28	0.11477	1633074.0	1500365.0	841060.0	0.0847557	0.578801
     29793.79	0.13190	1882813.0	1729424.0	969727.0	0.0849785	0.578529
     29794.30	0.12513	1785644.0	1640269.0	919084.0	0.0849189	0.579238
     29794.81	0.12453	1777298.0	1632650.0	915502.0	0.0848898	0.578487
     29795.32	0.12524	1788205.0	1642525.0	921259.0	0.0849776	0.578249
     29795.84	0.12298	1753073.0	1610387.0	903424.0	0.0848957	0.578038
     29796.35	0.12718	1817637.0	1670179.0	936830.0	0.0846065	0.578184
     29796.86	0.11972	1706764.0	1568393.0	879793.0	0.0845477	0.578120
     29797.37	0.12484	1780990.0	1635937.0	917746.0	0.0849537	0.578050
     29797.88	0.12486	1782941.0	1638020.0	918775.0	0.0847761	0.578202
     29798.39	0.11682	1663454.0	1528305.0	857367.0	0.0847369	0.578048
     29798.90	0.12506	1785151.0	1640202.0	920263.0	0.0846836	0.577915
     29799.41	0.10965	1561109.0	1434569.0	805024.0	0.0845320	0.577748
     29799.92	0.13692	1950462.0	1792055.0	1005853.0	0.0847033	0.577527
     29800.43	0.10945	1558220.0	1431781.0	803573.0	0.0846250	0.577606
     29800.94	0.11756	1677727.0	1541713.0	865311.0	0.0845458	0.577560
     29801.45	0.13204	1882474.0	1729686.0	971303.0	0.0846470	0.577057
     29801.97	0.12195	1738716.0	1597627.0	897037.0	0.0846275	0.577178
     29802.48	0.13319	1900766.0	1746669.0	981054.0	0.0845464	0.576838
     29802.99	0.13329	1900152.0	1745815.0	980155.0	0.0847124	0.577266
     29803.50	0.12398	1770878.0	1627456.0	913912.0	0.0844574	0.577039
     29804.01	0.12989	1852685.0	1702788.0	956098.0	0.0843690	0.577162
     29804.52	0.12880	1839335.0	1690490.0	949588.0	0.0843857	0.576746
     29805.03	0.12981	1849684.0	1700301.0	955170.0	0.0842095	0.576671
     29805.54	0.11914	1690254.0	1553416.0	872986.0	0.0844224	0.576292
     29806.05	0.11331	1607982.0	1477719.0	830360.0	0.0844803	0.576396
     29806.56	0.13181	1877369.0	1725829.0	970129.0	0.0841638	0.576034
     29807.07	0.12780	1815644.0	1668867.0	938151.0	0.0842953	0.575989
     29807.59	0.13239	1884694.0	1732517.0	973881.0	0.0841902	0.576041
     29808.10	0.21671	3079464.0	2830945.0	1591233.0	0.0841450	0.576101
     29808.61	0.069066	983022.0	903430.0	507947.0	0.0844329	0.575822
     29809.12	0.087353	1234757.0	1135154.0	638302.0	0.0841059	0.575712
     29809.63	0.12376	1757360.0	1615847.0	908570.0	0.0839534	0.575743
     29810.14	0.12290	1742438.0	1601899.0	900829.0	0.0840955	0.575630
     29810.65	0.15555	2209566.0	2031540.0	1142614.0	0.0840020	0.575476
     29811.16	0.13644	1936155.0	1780275.0	1001316.0	0.0839362	0.575453
     29811.68	0.11017	1558852.0	1433484.0	806328.0	0.0838418	0.575373
     29812.19	0.13142	1869069.0	1718501.0	967096.0	0.0839880	0.574910
     29812.70	0.11891	1688072.0	1552273.0	873538.0	0.0838667	0.574924
     29813.21	0.12050	1713059.0	1575265.0	886748.0	0.0838571	0.574618
     29813.72	0.12170	1724472.0	1586090.0	892636.0	0.0836490	0.574848
     29814.23	0.13219	1875362.0	1724334.0	970827.0	0.0839608	0.574448
     29814.74	0.12770	1813067.0	1667008.0	938423.0	0.0839895	0.574585
     29815.25	0.13676	1942596.0	1786230.0	1005744.0	0.0839180	0.574380
     29815.77	0.11772	1672469.0	1538213.0	866171.0	0.0836796	0.574294
     29816.28	0.13014	1834183.0	1686940.0	950262.0	0.0836829	0.573934
     29816.79	0.099082	1407180.0	1294402.0	728939.0	0.0835389	0.574214
     29817.30	0.11569	1627215.0	1496675.0	842997.0	0.0836240	0.574038
     29817.81	0.11482	1620306.0	1489866.0	839574.0	0.0839288	0.573547
     29818.32	0.11839	1682514.0	1547576.0	871798.0	0.0835993	0.573887
     29818.83	0.11908	1689190.0	1553868.0	875549.0	0.0835018	0.573651
     29819.35	0.12735	1798237.0	1654352.0	932221.0	0.0833973	0.573595
     29819.86	0.12334	1745966.0	1605823.0	905088.0	0.0836716	0.573360
     29820.37	0.13322	1892653.0	1741156.0	981718.0	0.0834303	0.573000
     29820.88	0.089149	1266744.0	1165439.0	657145.0	0.0833520	0.572948
     29821.39	0.11932	1690672.0	1555272.0	876891.0	0.0834756	0.573023
     29821.90	0.12657	1796441.0	1652699.0	932184.0	0.0833978	0.572635
     29822.42	0.12637	1787431.0	1644400.0	927297.0	0.0834038	0.572857
     29822.93	0.13585	1916028.0	1762815.0	993899.0	0.0833423	0.573032
     29823.44	0.13970	1964139.0	1807203.0	1019207.0	0.0832736	0.572755
     29823.95	0.16201	2298386.0	2114460.0	1192991.0	0.0834077	0.572336
     29824.46	0.11345	1610287.0	1481510.0	836004.0	0.0833506	0.572184
     29824.97	0.095902	1360513.0	1251844.0	706469.0	0.0832442	0.572094
     29825.49	0.12353	1753437.0	1613538.0	910232.0	0.0831486	0.572485
     29826.00	0.13329	1891678.0	1740395.0	982636.0	0.0833522	0.571629
     29826.51	0.12754	1807441.0	1663030.0	938995.0	0.0832708	0.571586
     29827.02	0.13445	1905941.0	1753916.0	990249.0	0.0831248	0.571650
     29827.53	0.12637	1790396.0	1647836.0	930692.0	0.0829739	0.571290
     29828.04	0.14175	2001810.0	1842306.0	1040381.0	0.0830337	0.571431
     29828.56	0.11763	1660408.0	1528115.0	862923.0	0.0830284	0.571465
     29829.07	0.13236	1864005.0	1715511.0	968986.0	0.0830164	0.571216
     29829.58	0.13458	1903596.0	1751907.0	989812.0	0.0830398	0.570945
     29830.09	0.13229	1866828.0	1718721.0	971074.0	0.0826603	0.570933
     29830.60	0.14099	1995002.0	1836161.0	1037639.0	0.0829681	0.570729
     29831.11	0.13265	1867043.0	1718667.0	971116.0	0.0828069	0.570858
     29831.63	0.14066	1994266.0	1835802.0	1037472.0	0.0827946	0.570694
     29832.14	0.13313	1885490.0	1735285.0	980963.0	0.0830161	0.570392
     29832.65	0.12357	1751854.0	1612785.0	911737.0	0.0827122	0.570366
     29833.16	0.12367	1750542.0	1611507.0	911179.0	0.0827557	0.570186
     29833.67	0.12608	1789793.0	1647522.0	931884.0	0.0828276	0.569819
     29834.19	0.12217	1727482.0	1590137.0	899491.0	0.0828447	0.569746
     29834.70	0.12796	1813286.0	1669250.0	944407.0	0.0827662	0.569572
     29835.21	0.12941	1836315.0	1690684.0	956301.0	0.0826277	0.569816
     29835.72	0.12321	1743955.0	1605377.0	908149.0	0.0827969	0.569705
     29836.23	0.12967	1832638.0	1687081.0	955317.0	0.0827566	0.568712
     29836.75	0.11443	1619508.0	1491331.0	844004.0	0.0824534	0.569267
     29837.26	0.12520	1773815.0	1632862.0	924450.0	0.0827983	0.568891
     29837.77	0.12202	1732292.0	1595148.0	902931.0	0.0824789	0.569076
     29838.28	0.12460	1768116.0	1627945.0	921780.0	0.0825961	0.568767
     29838.80	0.12144	1717294.0	1581312.0	895774.0	0.0824949	0.568322
     29839.31	0.12501	1760781.0	1621102.0	918223.0	0.0826513	0.568421
     29839.82	0.11620	1645498.0	1515600.0	858426.0	0.0822317	0.568466
     29840.33	0.12610	1778452.0	1637325.0	927570.0	0.0826795	0.568251
     29840.84	0.12020	1698227.0	1563757.0	885838.0	0.0824935	0.568312
     29841.36	0.12278	1735173.0	1597897.0	905742.0	0.0824187	0.567689
     29841.87	0.11300	1597581.0	1471525.0	833699.0	0.0821913	0.568182
     29842.38	0.12409	1751421.0	1613289.0	914235.0	0.0821525	0.567943
     29842.89	0.12526	1767209.0	1627928.0	922860.0	0.0820934	0.567586
     29843.41	0.14608	2062785.0	1899712.0	1076812.0	0.0823547	0.567697
     29843.92	0.12096	1702182.0	1567628.0	888609.0	0.0823473	0.567662
     29844.43	0.13189	1864557.0	1717503.0	974074.0	0.0821520	0.567139
     29844.94	0.12461	1738866.0	1601747.0	908585.0	0.0821383	0.566962
     29845.46	0.12640	1778414.0	1638332.0	928856.0	0.0820433	0.567480
     29845.97	0.12107	1709940.0	1575092.0	893473.0	0.0821446	0.566953
     29846.48	0.12404	1747758.0	1609958.0	913262.0	0.0821257	0.566941
     29846.99	0.12930	1815057.0	1671882.0	948308.0	0.0821669	0.567026
     29847.50	0.12778	1805700.0	1663496.0	944148.0	0.0820269	0.566394
     29848.02	0.12623	1780252.0	1640107.0	930716.0	0.0819934	0.566563
     29848.53	0.12261	1725878.0	1589969.0	902344.0	0.0820214	0.566474
     29849.04	0.11648	1641440.0	1512124.0	858496.0	0.0820586	0.566089
     29849.56	0.13405	1890998.0	1742201.0	989096.0	0.0819555	0.566113
     29850.07	0.12898	1826605.0	1682628.0	955486.0	0.0821022	0.565892
     29850.58	0.13383	1884688.0	1736756.0	986268.0	0.0817433	0.565846
     29851.09	0.13250	1853104.0	1707422.0	969493.0	0.0818774	0.565967
     29851.61	0.12395	1736802.0	1600356.0	909100.0	0.0818194	0.565526
     29852.12	0.13135	1844746.0	1699891.0	965678.0	0.0817775	0.565489
     29852.63	0.12386	1744862.0	1607943.0	913329.0	0.0817197	0.565615
     29853.14	0.13117	1847313.0	1702210.0	966948.0	0.0818047	0.565538
     29853.66	0.12671	1787085.0	1647079.0	936182.0	0.0815824	0.564949
     29854.17	0.12464	1758265.0	1620217.0	920701.0	0.0817674	0.565180
     29854.68	0.12165	1716765.0	1581772.0	899353.0	0.0818960	0.564625
     29855.19	0.12481	1764898.0	1626417.0	924773.0	0.0817135	0.564586
     29855.71	0.12869	1822380.0	1679011.0	954312.0	0.0819384	0.564970
     29856.22	0.11885	1680666.0	1549132.0	880989.0	0.0814954	0.564405
     29856.73	0.12452	1761383.0	1623148.0	922879.0	0.0817318	0.564625
     29857.25	0.12414	1755046.0	1617441.0	919821.0	0.0816498	0.564421
     29857.76	0.11556	1628200.0	1500984.0	854107.0	0.0813542	0.563820
     29858.27	0.12420	1753534.0	1616755.0	919639.0	0.0812121	0.564195
     29858.78	0.11685	1653260.0	1523785.0	866904.0	0.0815517	0.564024
     29859.30	0.11555	1635688.0	1507914.0	857976.0	0.0813363	0.563906
     29859.81	0.11997	1695945.0	1563406.0	889787.0	0.0813733	0.563640
     29860.32	0.11385	1608420.0	1483060.0	843897.0	0.0811448	0.563832
     29860.84	0.10983	1551226.0	1430257.0	814186.0	0.0811914	0.563421
     29861.35	0.12011	1695411.0	1563336.0	889907.0	0.0811032	0.563460
     29861.86	0.11591	1638814.0	1510966.0	860080.0	0.0812236	0.563479
     29862.37	0.13242	1872784.0	1726413.0	982859.0	0.0813802	0.563335
     29862.89	0.12363	1739096.0	1603451.0	913292.0	0.0812073	0.562858
     29863.40	0.12872	1802106.0	1661799.0	946102.0	0.0810552	0.563306
     29863.91	0.12265	1724974.0	1590592.0	905610.0	0.0811057	0.563253
     29864.43	0.14134	1989566.0	1834920.0	1045269.0	0.0809156	0.562727
     29864.94	0.11401	1607071.0	1481996.0	844121.0	0.0810234	0.562849
     29865.45	0.14420	2031247.0	1873222.0	1067191.0	0.0809899	0.562630
     29865.97	0.11538	1628805.0	1501979.0	855818.0	0.0810630	0.562481
     29866.48	0.13512	1905886.0	1757704.0	1001967.0	0.0809386	0.562043
     29866.99	0.12349	1731837.0	1597317.0	910382.0	0.0808573	0.562216
     29867.50	0.14093	1983513.0	1829722.0	1042617.0	0.0807055	0.562430
     29868.02	0.12192	1717559.0	1583905.0	902959.0	0.0810108	0.561971
     29868.53	0.12313	1734503.0	1599920.0	912167.0	0.0807673	0.561886
     29869.04	0.13639	1919690.0	1770782.0	1009706.0	0.0807425	0.561762
     29869.56	0.13442	1896831.0	1749553.0	997880.0	0.0808243	0.561483
     29870.07	0.12791	1801209.0	1660951.0	947420.0	0.0810678	0.561403
     29870.58	0.13616	1922705.0	1773156.0	1011316.0	0.0809720	0.561509
     29871.10	0.12941	1827693.0	1685554.0	961599.0	0.0809602	0.561252
     29871.61	0.13838	1942461.0	1791986.0	1022840.0	0.0806312	0.560741
     29872.12	0.13340	1879130.0	1733460.0	989186.0	0.0806895	0.560992
     29872.64	0.13207	1856700.0	1712643.0	977023.0	0.0807629	0.561283
     29873.15	0.13239	1855123.0	1711172.0	976680.0	0.0807725	0.560775
     29873.66	0.12506	1762109.0	1625560.0	927545.0	0.0806590	0.561066
     29874.18	0.13364	1879286.0	1733982.0	990009.0	0.0804714	0.560462
     29874.69	0.12649	1769788.0	1632462.0	931974.0	0.0807705	0.560540
     29875.20	0.12235	1722980.0	1589834.0	907611.0	0.0804257	0.560569
     29875.72	0.12317	1725463.0	1592135.0	909010.0	0.0804195	0.560475
     29876.23	0.12551	1766665.0	1630047.0	930718.0	0.0804847	0.560408
     29876.74	0.13092	1843199.0	1700522.0	971203.0	0.0805674	0.560155
     29877.26	0.11500	1609239.0	1485214.0	848275.0	0.0802025	0.560109
     29877.77	0.12763	1790505.0	1652033.0	943749.0	0.0804911	0.559902
     29878.29	0.12662	1775489.0	1638634.0	935938.0	0.0802129	0.560069
     29878.80	0.12737	1793158.0	1655079.0	945531.0	0.0801296	0.559857
     29879.31	0.11318	1590656.0	1467900.0	838329.0	0.0803137	0.560177
     29879.83	0.13101	1833822.0	1692305.0	967337.0	0.0803108	0.559300
     29880.34	0.12154	1696395.0	1565510.0	894556.0	0.0802938	0.559639
     29880.85	0.12312	1727126.0	1594402.0	911085.0	0.0799600	0.559618
     29881.37	0.12080	1688312.0	1558686.0	891083.0	0.0798861	0.559161
     29881.88	0.11926	1674230.0	1545778.0	883657.0	0.0798260	0.559214
     29882.39	0.11680	1641214.0	1514907.0	865971.0	0.0800822	0.559258
     29882.91	0.12084	1699362.0	1568228.0	896858.0	0.0803066	0.558804
     29883.42	0.12797	1804929.0	1666190.0	952382.0	0.0799817	0.559329
     29883.94	0.11761	1648055.0	1521590.0	870521.0	0.0798400	0.558419
     29884.45	0.13189	1847327.0	1705068.0	975356.0	0.0801347	0.558558
     29884.96	0.12428	1741336.0	1607217.0	919539.0	0.0801485	0.558387
     29885.48	0.14165	1986384.0	1833874.0	1049281.0	0.0798852	0.558326
     29885.99	0.12546	1758630.0	1623470.0	928719.0	0.0799693	0.558515
     29886.50	0.13175	1849244.0	1707687.0	977421.0	0.0796371	0.557978
     29887.02	0.11850	1663511.0	1535729.0	879022.0	0.0799252	0.557951
     29887.53	0.12005	1684730.0	1555368.0	890230.0	0.0798931	0.557988
     29888.05	0.12731	1788356.0	1651612.0	945494.0	0.0795450	0.557800
     29888.56	0.12842	1795482.0	1657597.0	949076.0	0.0799045	0.557635
     29889.07	0.13084	1842110.0	1700941.0	973762.0	0.0797300	0.557770
     29889.59	0.11915	1671116.0	1542730.0	883205.0	0.0799381	0.557752
     29890.10	0.12408	1744802.0	1611436.0	922376.0	0.0795154	0.557928
     29890.62	0.12579	1763264.0	1627842.0	931911.0	0.0799114	0.557773
     29891.13	0.12331	1727675.0	1595107.0	913325.0	0.0798358	0.557604
     29891.64	0.13297	1860372.0	1717687.0	983840.0	0.0797978	0.557271
     29892.16	0.12570	1761070.0	1626243.0	931371.0	0.0796491	0.557370
     29892.67	0.12866	1802560.0	1664488.0	953397.0	0.0796903	0.557241
     29893.19	0.13381	1869497.0	1726807.0	989169.0	0.0793954	0.557164
     29893.70	0.14545	2037915.0	1882528.0	1079027.0	0.0793117	0.556556
     29894.21	0.11171	1555816.0	1436928.0	823477.0	0.0794927	0.556727
     29894.73	0.13340	1863587.0	1721089.0	986500.0	0.0795459	0.556549
     29895.24	0.12220	1710895.0	1580357.0	905809.0	0.0793659	0.556578
     29895.76	0.11428	1597639.0	1475873.0	845980.0	0.0792772	0.556509
     29896.27	0.12889	1804143.0	1666577.0	955475.0	0.0793139	0.556319
     29896.78	0.12213	1707095.0	1577143.0	903915.0	0.0791781	0.556635
     29897.30	0.13662	1911403.0	1765698.0	1012497.0	0.0792914	0.556127
     29897.81	0.14444	2023915.0	1869274.0	1071825.0	0.0794836	0.556187
     29898.33	0.11799	1652413.0	1526342.0	875299.0	0.0793626	0.556064
     29898.84	0.10174	1422055.0	1313780.0	753560.0	0.0791945	0.555855
     29899.36	0.11852	1661714.0	1535259.0	880440.0	0.0791505	0.556033
     29899.87	0.12311	1727542.0	1595754.0	915026.0	0.0793532	0.556149
     29900.38	0.11570	1617347.0	1494178.0	857057.0	0.0792109	0.555827
     29900.90	0.11628	1617855.0	1494747.0	857674.0	0.0791442	0.555488
     29901.41	0.13177	1836275.0	1696848.0	973686.0	0.0789667	0.555439
     29901.93	0.11472	1602592.0	1480744.0	849588.0	0.0790777	0.555548
     29902.44	0.13861	1942953.0	1795087.0	1030277.0	0.0791555	0.555226
     29902.96	0.072413	1015226.0	938068.0	538372.0	0.0790441	0.555273
     29903.47	0.12170	1695877.0	1567218.0	899515.0	0.0788979	0.555202
     29903.98	0.12553	1759767.0	1625475.0	933129.0	0.0793813	0.555012
     29904.50	0.11947	1672589.0	1545799.0	887492.0	0.0788318	0.554897
     29905.01	0.13118	1837340.0	1698111.0	975017.0	0.0788024	0.554817
     29905.53	0.12707	1775752.0	1640538.0	941876.0	0.0791998	0.554906
     29906.04	0.13298	1854763.0	1714591.0	984519.0	0.0785824	0.554777
     29906.56	0.15163	2106680.0	1946813.0	1118267.0	0.0789196	0.554414
     29907.07	0.10600	1486584.0	1373590.0	788714.0	0.0790531	0.554779
     29907.59	0.12310	1719652.0	1589195.0	912643.0	0.0788943	0.554638
     29908.10	0.13003	1816353.0	1678885.0	964477.0	0.0787008	0.554299
     29908.62	0.14087	1969473.0	1820040.0	1045569.0	0.0789075	0.554297
     29909.13	0.12613	1761276.0	1628049.0	935413.0	0.0786562	0.554150
     29909.64	0.12620	1757263.0	1624751.0	933595.0	0.0784029	0.554067
     29910.16	0.19628	2724399.0	2517910.0	1447161.0	0.0788187	0.553825
     29910.67	0.10443	1458574.0	1348356.0	774500.0	0.0785732	0.554424
     29911.19	0.094874	1316932.0	1217573.0	699624.0	0.0784453	0.554072
     29911.70	0.13132	1834628.0	1695802.0	974917.0	0.0786860	0.553559
     29912.22	0.14742	2045956.0	1891383.0	1087338.0	0.0785569	0.553576
     29912.73	0.12779	1767173.0	1633343.0	939305.0	0.0787523	0.553244
     29913.25	0.12858	1790623.0	1655220.0	951653.0	0.0786297	0.553489
     29913.76	0.14042	1950958.0	1803971.0	1037742.0	0.0783302	0.552943
     29914.28	0.12356	1721019.0	1591100.0	915151.0	0.0784910	0.553092
     29914.79	0.14203	1985054.0	1835029.0	1055309.0	0.0785858	0.553227
     29915.31	0.11408	1576271.0	1457433.0	838671.0	0.0783853	0.552613
     29915.82	0.12611	1745033.0	1613134.0	928221.0	0.0785946	0.552664
     29916.34	0.13021	1812276.0	1675757.0	964664.0	0.0783185	0.552240
     29916.85	0.13263	1843000.0	1704143.0	980835.0	0.0783323	0.552413
     29917.37	0.12553	1749997.0	1618419.0	931502.0	0.0781643	0.552407
     29917.88	0.12048	1673828.0	1548071.0	890671.0	0.0781036	0.552790
     29918.40	0.12883	1794502.0	1659159.0	955278.0	0.0784167	0.552064
     29918.91	0.12914	1801406.0	1665979.0	959099.0	0.0781545	0.552174
     29919.43	0.11449	1592033.0	1472381.0	847586.0	0.0781310	0.552244
     29919.94	0.13304	1847681.0	1708605.0	983955.0	0.0782541	0.551852
     29920.46	0.12186	1693225.0	1565901.0	901605.0	0.0781736	0.552040
     29920.97	0.12397	1727473.0	1597861.0	920651.0	0.0779938	0.551340
     29921.49	0.11985	1663034.0	1538219.0	885986.0	0.0780184	0.551679
     29922.00	0.11736	1636861.0	1514237.0	872245.0	0.0778687	0.551597
     29922.52	0.12282	1705676.0	1577593.0	908961.0	0.0780612	0.551353
     29923.03	0.11636	1619640.0	1497733.0	863182.0	0.0782513	0.551082
     29923.55	0.12207	1689780.0	1563176.0	900708.0	0.0778787	0.551294
     29924.06	0.12805	1784568.0	1650953.0	951165.0	0.0778237	0.551420
     29924.58	0.11952	1663523.0	1539417.0	887061.0	0.0775339	0.551245
     29925.09	0.11290	1569273.0	1451990.0	836867.0	0.0776774	0.551025
     29925.61	0.12572	1754649.0	1623682.0	935577.0	0.0775724	0.551288
     29926.12	0.13450	1876559.0	1736239.0	1001157.0	0.0777185	0.550565
     29926.64	0.12875	1795712.0	1661417.0	957582.0	0.0777307	0.551015
     29927.15	0.13274	1846045.0	1708193.0	984897.0	0.0776094	0.550654
     29927.67	0.11059	1540829.0	1425907.0	822261.0	0.0775125	0.550506
     29928.18	0.13731	1916008.0	1772743.0	1022315.0	0.0777158	0.550458
     29928.70	0.12465	1738233.0	1608550.0	927729.0	0.0775359	0.550349
     29929.21	0.13280	1845106.0	1707527.0	984864.0	0.0774906	0.550298
     29929.73	0.12462	1726981.0	1597954.0	921900.0	0.0776507	0.550043
     29930.24	0.11820	1643267.0	1520625.0	877204.0	0.0775649	0.550137
     29930.76	0.13266	1850467.0	1712783.0	988370.0	0.0773185	0.549818
     29931.27	0.11699	1627547.0	1506066.0	869155.0	0.0775730	0.549735
     29931.79	0.12181	1695768.0	1569481.0	905859.0	0.0773907	0.549617
     29932.31	0.12988	1812337.0	1676658.0	967877.0	0.0778146	0.549453
     29932.82	0.12211	1697380.0	1571006.0	906894.0	0.0773697	0.549446
     29933.34	0.13073	1821491.0	1685701.0	973674.0	0.0774739	0.548860
     29933.85	0.13128	1824915.0	1689209.0	975278.0	0.0772730	0.549293
     29934.37	0.12958	1809957.0	1675213.0	967452.0	0.0773628	0.549030
     29934.88	0.13043	1812705.0	1677754.0	969003.0	0.0773642	0.548944
     29935.40	0.12619	1747912.0	1617789.0	934569.0	0.0773615	0.548730
     29935.91	0.13348	1858577.0	1720113.0	993685.0	0.0774212	0.548725
     29936.43	0.12202	1695250.0	1569086.0	906253.0	0.0773369	0.548930
     29936.94	0.13722	1906729.0	1764987.0	1019920.0	0.0772459	0.548419
     29937.46	0.12208	1701717.0	1575193.0	910317.0	0.0772599	0.548340
     29937.98	0.12538	1744074.0	1614437.0	933181.0	0.0772375	0.548142
     29938.49	0.13836	1926184.0	1782670.0	1030299.0	0.0774286	0.548263
     29939.01	0.11671	1616414.0	1496571.0	865138.0	0.0770336	0.548043
     29939.52	0.12557	1750644.0	1621488.0	937399.0	0.0766395	0.547991
     29940.04	0.11772	1635797.0	1514342.0	875191.0	0.0771491	0.548294
     29940.55	0.12690	1768627.0	1637879.0	946611.0	0.0768014	0.548269
     29941.07	0.12075	1683375.0	1558652.0	901366.0	0.0769794	0.547665
     29941.59	0.11798	1639755.0	1518372.0	878015.0	0.0769081	0.547730
     29942.10	0.11486	1599375.0	1480879.0	856458.0	0.0769771	0.547586
     29942.62	0.11369	1577663.0	1460192.0	845226.0	0.0773767	0.546719
     29943.13	0.12509	1739020.0	1610115.0	931924.0	0.0770161	0.546810
     29943.65	0.11280	1570000.0	1454212.0	841115.0	0.0766114	0.547491
     29944.16	0.11394	1578311.0	1461473.0	845734.0	0.0769105	0.546995
     29944.68	0.10999	1532709.0	1419377.0	821279.0	0.0768187	0.547110
     29945.20	0.11977	1656325.0	1534226.0	887908.0	0.0765753	0.546913
     29945.71	0.12824	1781887.0	1649991.0	955401.0	0.0769031	0.546394
     29946.23	0.12292	1699085.0	1573931.0	910979.0	0.0765136	0.546812
     29946.74	0.12314	1709815.0	1583699.0	916912.0	0.0766219	0.546507
     29947.26	0.13690	1892118.0	1752432.0	1014495.0	0.0766923	0.546614
     29947.78	0.12247	1686444.0	1562623.0	904815.0	0.0762564	0.546391
     29948.29	0.12280	1701649.0	1576279.0	913104.0	0.0765308	0.545973
     29948.81	0.14003	1946659.0	1803258.0	1044325.0	0.0765195	0.546224
     29949.32	0.12611	1752489.0	1623518.0	940420.0	0.0764417	0.546024
     29949.84	0.12735	1763484.0	1633578.0	946117.0	0.0765187	0.546162
     29950.36	0.14396	1954154.0	1810889.0	1048891.0	0.0761395	0.546084
     29950.87	0.11707	1607014.0	1488873.0	863040.0	0.0763583	0.545314
     29951.39	0.14234	1967643.0	1822948.0	1056381.0	0.0763814	0.545606
     29951.90	0.11769	1628205.0	1508689.0	873907.0	0.0762371	0.546022
     29952.42	0.12772	1767405.0	1637713.0	949497.0	0.0762116	0.545124
     29952.94	0.12527	1732710.0	1605028.0	930301.0	0.0765455	0.545388
     29953.45	0.13842	1913316.0	1772756.0	1027826.0	0.0763025	0.545090
     29953.97	0.13007	1808272.0	1675437.0	971379.0	0.0762977	0.545113
     29954.48	0.13106	1821481.0	1687696.0	978696.0	0.0762856	0.544898
     29955.00	0.13801	1917330.0	1776922.0	1030284.0	0.0760509	0.545048
     29955.52	0.13596	1879432.0	1741434.0	1010172.0	0.0762607	0.544588
     29956.03	0.12954	1796941.0	1665308.0	965746.0	0.0760757	0.544865
     29956.55	0.12372	1719536.0	1593635.0	924373.0	0.0760369	0.544657
     29957.07	0.13291	1841719.0	1706841.0	990110.0	0.0760551	0.544584
     29957.58	0.12917	1787714.0	1656727.0	961485.0	0.0760937	0.544120
     29958.10	0.12470	1730901.0	1603961.0	930455.0	0.0761659	0.544558
     29958.61	0.13121	1812163.0	1679756.0	974339.0	0.0758726	0.544645
     29959.13	0.12714	1759928.0	1631284.0	946815.0	0.0759055	0.544019
     29959.65	0.11743	1624767.0	1505957.0	873819.0	0.0759358	0.544311
     29960.16	0.13043	1810525.0	1677807.0	974137.0	0.0761293	0.543691
     29960.68	0.11787	1624310.0	1505601.0	874268.0	0.0758910	0.543560
     29961.20	0.13589	1886689.0	1749133.0	1015719.0	0.0757032	0.543524
     29961.71	0.11631	1610967.0	1493100.0	867267.0	0.0759801	0.543263
     29962.23	0.13022	1807367.0	1675658.0	973188.0	0.0756652	0.543384
     29962.75	0.12736	1767374.0	1638309.0	951286.0	0.0758302	0.543605
     29963.26	0.11400	1579712.0	1464436.0	850990.0	0.0757724	0.542825
     29963.78	0.12937	1795417.0	1664484.0	966769.0	0.0757221	0.543311
     29964.30	0.11536	1599926.0	1483512.0	861835.0	0.0755451	0.543104
     29964.81	0.12864	1789008.0	1658269.0	963248.0	0.0758870	0.543219
     29965.33	0.11296	1566554.0	1452441.0	843796.0	0.0756327	0.543090
     29965.84	0.11925	1655656.0	1535058.0	892424.0	0.0756291	0.542382
     29966.36	0.13042	1811278.0	1679318.0	975763.0	0.0756449	0.542923
     29966.88	0.11777	1635104.0	1515611.0	880822.0	0.0758878	0.542718
     29967.39	0.13400	1857302.0	1722117.0	1001242.0	0.0755705	0.542313
     29967.91	0.12507	1732944.0	1606973.0	934032.0	0.0754694	0.542597
     29968.43	0.13331	1850916.0	1716221.0	997619.0	0.0755559	0.542509
     29968.94	0.12144	1687313.0	1564628.0	909844.0	0.0754892	0.542130
     29969.46	0.12318	1711958.0	1587520.0	923182.0	0.0754647	0.542102
     29969.98	0.13564	1883497.0	1746700.0	1015945.0	0.0754019	0.541909
     29970.49	0.12719	1763547.0	1635340.0	951400.0	0.0754764	0.541671
     29971.01	0.11431	1587774.0	1472214.0	856546.0	0.0755656	0.541615
     29971.53	0.13779	1908984.0	1770699.0	1029971.0	0.0751968	0.541844
     29972.04	0.12115	1680377.0	1558565.0	907023.0	0.0752526	0.541353
     29972.56	0.13496	1871705.0	1736213.0	1010265.0	0.0751435	0.541494
     29973.08	0.10672	1478583.0	1371464.0	797962.0	0.0752054	0.541573
     29973.60	0.12673	1756552.0	1628994.0	947934.0	0.0753902	0.541433
     29974.11	0.12119	1681258.0	1559465.0	907434.0	0.0751995	0.541477
     29974.63	0.13109	1820142.0	1688046.0	982747.0	0.0753429	0.540975
     29975.15	0.12769	1766942.0	1639050.0	954534.0	0.0751336	0.540649
     29975.66	0.13110	1811097.0	1680164.0	978440.0	0.0750413	0.540687
     29976.18	0.13274	1828634.0	1696471.0	987669.0	0.0750190	0.540958
     29976.70	0.16206	2240853.0	2078985.0	1210343.0	0.0749768	0.540976
     29977.21	0.097221	1347488.0	1250142.0	728252.0	0.0749850	0.540365
     29977.73	0.11216	1553647.0	1441484.0	839492.0	0.0749319	0.540631
     29978.25	0.13644	1888788.0	1752474.0	1020673.0	0.0749068	0.540566
     29978.76	0.13311	1843242.0	1709931.0	996274.0	0.0750730	0.540186
     29979.28	0.12994	1800814.0	1671212.0	973455.0	0.0746897	0.540453
     29979.80	0.13064	1810490.0	1679718.0	979145.0	0.0749716	0.539701
     29980.32	0.12958	1792870.0	1664041.0	969576.0	0.0745687	0.540145
     29980.83	0.18633	2579812.0	2393956.0	1394612.0	0.0747693	0.540331
     29981.35	0.088815	1229118.0	1140318.0	664645.0	0.0749897	0.539809
     29981.87	0.10552	1457762.0	1352829.0	788590.0	0.0747044	0.539707
     29982.38	0.11336	1568508.0	1455626.0	848476.0	0.0746888	0.539750
     29982.90	0.11297	1565730.0	1453023.0	847198.0	0.0747060	0.539467
     29983.42	0.11690	1616446.0	1500279.0	874716.0	0.0745788	0.539507
     29983.94	0.14093	1951910.0	1811359.0	1056384.0	0.0747310	0.539226
     29984.45	0.11188	1550555.0	1438692.0	839099.0	0.0748786	0.539161
     29984.97	0.13574	1878142.0	1743237.0	1016560.0	0.0745393	0.539319
     29985.49	0.11344	1571501.0	1458714.0	850858.0	0.0744760	0.539065
     29986.00	0.092899	1286571.0	1194343.0	696620.0	0.0743843	0.539111
     29986.52	0.10911	1510340.0	1401912.0	817825.0	0.0744978	0.538944
     29987.04	0.11330	1566777.0	1454725.0	848571.0	0.0742038	0.539018
     29987.56	0.11464	1586926.0	1473148.0	859509.0	0.0743972	0.538796
     29988.07	0.12790	1770379.0	1643590.0	958809.0	0.0743108	0.538946
     29988.59	0.14300	1976167.0	1834594.0	1070977.0	0.0743359	0.538252
     29989.11	0.18134	2509323.0	2329611.0	1359599.0	0.0743117	0.538511
     29989.63	0.11366	1573425.0	1460592.0	852599.0	0.0744129	0.538308
     29990.14	0.092700	1283288.0	1191275.0	695393.0	0.0744014	0.538302
     29990.66	0.12149	1680265.0	1559588.0	910413.0	0.0745298	0.538279
     29991.18	0.11909	1646311.0	1528543.0	892737.0	0.0742220	0.537778
     29991.70	0.12692	1756179.0	1630477.0	952233.0	0.0742678	0.537818
     29992.21	0.13272	1832214.0	1701137.0	993504.0	0.0742282	0.537814
     29992.73	0.12861	1776376.0	1648855.0	963403.0	0.0744942	0.537365
     29993.25	0.20077	2769573.0	2571222.0	1501945.0	0.0743119	0.537620
     29993.77	0.10212	1413130.0	1312266.0	766647.0	0.0740517	0.537484
     29994.28	0.091087	1256562.0	1166514.0	681328.0	0.0743596	0.537731
     29994.80	0.11981	1649587.0	1531747.0	894912.0	0.0741160	0.537439
     29995.32	0.13979	1924614.0	1786983.0	1044357.0	0.0741967	0.537127
     29995.84	0.13162	1818381.0	1688675.0	986783.0	0.0740023	0.537249
     29996.35	0.13095	1809667.0	1680231.0	982335.0	0.0742116	0.536754
     29996.87	0.15269	2110869.0	1960050.0	1145601.0	0.0741297	0.537041
     29997.39	0.19049	2623637.0	2436773.0	1424411.0	0.0738869	0.536916
     29997.91	0.079101	1092010.0	1014045.0	592585.0	0.0740728	0.537208
     29998.42	0.10628	1466141.0	1361470.0	795766.0	0.0740688	0.537015
     29998.94	0.12893	1779280.0	1652478.0	966265.0	0.0739328	0.536593
     29999.46	0.13007	1796255.0	1667878.0	975243.0	0.0741518	0.536621
     29999.98	0.12023	1655387.0	1537830.0	899566.0	0.0736625	0.536215
     30000.50	0.12230	1686908.0	1567006.0	916754.0	0.0737305	0.536083
     30001.01	0.13451	1855438.0	1723215.0	1007977.0	0.0739291	0.536246
     30001.53	0.12348	1704550.0	1583298.0	926354.0	0.0737911	0.536009
     30002.05	0.12381	1707948.0	1586864.0	928299.0	0.0735329	0.536161
     30002.57	0.12916	1783759.0	1656730.0	969487.0	0.0738772	0.535834
     30003.08	0.12221	1687245.0	1567497.0	917329.0	0.0736169	0.535769
     30003.60	0.12315	1698650.0	1578002.0	923306.0	0.0736743	0.535954
     30004.12	0.12623	1740991.0	1616854.0	946437.0	0.0739722	0.535533
     30004.64	0.12735	1755428.0	1631123.0	954965.0	0.0734440	0.535349
     30005.16	0.12114	1673090.0	1554396.0	909639.0	0.0735852	0.535795
     30005.67	0.11230	1549218.0	1439166.0	842647.0	0.0736865	0.535271
     30006.19	0.12560	1731798.0	1608859.0	941773.0	0.0736349	0.535516
     30006.71	0.12163	1677745.0	1558826.0	913181.0	0.0735177	0.534754
     30007.23	0.12451	1719460.0	1597662.0	935470.0	0.0734690	0.535248
     30007.75	0.11428	1575833.0	1464426.0	857709.0	0.0733207	0.534954
     30008.26	0.12866	1769835.0	1644987.0	963622.0	0.0731538	0.534789
     30008.78	0.12542	1726656.0	1604547.0	940148.0	0.0733451	0.534559
     30009.30	0.12839	1763789.0	1638990.0	960263.0	0.0733841	0.534628
     30009.82	0.13098	1804237.0	1677068.0	982876.0	0.0730908	0.534319
     30010.34	0.12086	1667257.0	1549697.0	907779.0	0.0731203	0.534814
     30010.86	0.14042	1932080.0	1795621.0	1052100.0	0.0732462	0.534563
     30011.37	0.11852	1630955.0	1516142.0	888546.0	0.0729968	0.534338
     30011.89	0.13246	1822337.0	1693678.0	992916.0	0.0732172	0.534012
     30012.41	0.12111	1666086.0	1548809.0	908189.0	0.0729909	0.533789
     30012.93	0.12550	1726410.0	1604558.0	940938.0	0.0731958	0.533726
     30013.45	0.12240	1684181.0	1565604.0	918042.0	0.0730077	0.533784
     30013.96	0.11972	1632386.0	1517362.0	889805.0	0.0730694	0.533726
     30014.48	0.13313	1833319.0	1703899.0	999163.0	0.0732088	0.533757
     30015.00	0.12672	1742423.0	1619431.0	949741.0	0.0732018	0.533641
     30015.52	0.11919	1638752.0	1523497.0	893746.0	0.0729266	0.533342
     30016.04	0.13161	1813395.0	1685894.0	988873.0	0.0729048	0.533485
     30016.56	0.13601	1866497.0	1735512.0	1018133.0	0.0727609	0.533332
     30017.07	0.12292	1690493.0	1571917.0	921953.0	0.0727243	0.533557
     30017.59	0.13300	1830862.0	1702176.0	998544.0	0.0728795	0.533364
     30018.11	0.13053	1796464.0	1670508.0	980696.0	0.0726925	0.532621
     30018.63	0.12532	1724364.0	1602944.0	940807.0	0.0730163	0.532859
     30019.15	0.12968	1780020.0	1654792.0	971522.0	0.0729493	0.532567
     30019.67	0.12607	1729823.0	1608400.0	944465.0	0.0727792	0.532377
     30020.18	0.12660	1740091.0	1618025.0	950164.0	0.0727311	0.532327
     30020.70	0.12787	1751273.0	1628446.0	956074.0	0.0727168	0.532546
     30021.22	0.12956	1775081.0	1650852.0	969582.0	0.0725545	0.532182
     30021.74	0.12972	1776825.0	1652382.0	970797.0	0.0726102	0.531856
     30022.26	0.11167	1532663.0	1425275.0	836840.0	0.0726420	0.532487
     30022.78	0.12408	1707251.0	1588174.0	933030.0	0.0722995	0.531903
     30023.30	0.12605	1728203.0	1607617.0	944309.0	0.0723292	0.532055
     30023.81	0.11368	1563021.0	1453786.0	854352.0	0.0724493	0.531583
     30024.33	0.12163	1670066.0	1553424.0	912981.0	0.0724016	0.531502
     30024.85	0.12153	1658587.0	1542272.0	906306.0	0.0727094	0.531635
     30025.37	0.12700	1733119.0	1612119.0	947442.0	0.0723732	0.531539
     30025.89	0.12102	1660298.0	1544500.0	908120.0	0.0722969	0.531079
     30026.41	0.10628	1455242.0	1353647.0	795468.0	0.0723698	0.531627
     30026.93	0.10813	1479848.0	1375958.0	808933.0	0.0727892	0.531189
     30027.44	0.11197	1529329.0	1422663.0	836678.0	0.0722986	0.530846
     30027.96	0.12269	1685678.0	1567850.0	921892.0	0.0724626	0.531032
     30028.48	0.13430	1843709.0	1715690.0	1008650.0	0.0719640	0.531203
     30029.00	0.13228	1813376.0	1686665.0	992085.0	0.0724371	0.530700
     30029.52	0.12992	1782888.0	1658440.0	975026.0	0.0723571	0.531169
     30030.04	0.13237	1809815.0	1683973.0	990500.0	0.0720687	0.530701
     30030.56	0.12342	1677712.0	1561347.0	918617.0	0.0718821	0.530435
     30031.08	0.11386	1546977.0	1439599.0	846575.0	0.0719381	0.530921
     30031.60	0.12904	1758091.0	1635667.0	962259.0	0.0721779	0.530522
     30032.11	0.13237	1804474.0	1678770.0	988151.0	0.0722078	0.529981
     30032.63	0.13772	1877041.0	1746813.0	1027999.0	0.0719036	0.530179
     30033.15	0.13203	1799998.0	1674715.0	985841.0	0.0721426	0.529903
     30033.67	0.15994	2184492.0	2032734.0	1196320.0	0.0720016	0.530132
     30034.19	0.097163	1326122.0	1234055.0	726428.0	0.0719534	0.529921
     30034.71	0.10979	1498942.0	1395176.0	821647.0	0.0717390	0.529465
     30035.23	0.13723	1878873.0	1748862.0	1029583.0	0.0717068	0.529811
     30035.75	0.13463	1847853.0	1719379.0	1012981.0	0.0720612	0.529066
     30036.27	0.12750	1748045.0	1626716.0	958164.0	0.0719348	0.529300
     30036.78	0.13207	1795587.0	1671166.0	984497.0	0.0718104	0.529146
     30037.30	0.14222	1937808.0	1803186.0	1062104.0	0.0720023	0.529303
     30037.82	0.14517	1986198.0	1848646.0	1089121.0	0.0717688	0.529083
     30038.34	0.11823	1617554.0	1505701.0	886912.0	0.0716566	0.529268
     30038.86	0.13444	1826894.0	1700764.0	1002194.0	0.0715397	0.528886
     30039.38	0.12605	1717029.0	1598440.0	941793.0	0.0715673	0.528998
     30039.90	0.12779	1735516.0	1615781.0	952366.0	0.0714863	0.528624
     30040.42	0.12266	1667497.0	1552180.0	914605.0	0.0716633	0.528923
     30040.94	0.12657	1728800.0	1608995.0	948224.0	0.0718178	0.528774
     30041.46	0.13122	1769364.0	1647515.0	971116.0	0.0713521	0.528577
     30041.98	0.11970	1635652.0	1522400.0	897608.0	0.0717535	0.528310
     30042.50	0.12104	1653238.0	1539306.0	907463.0	0.0714041	0.528434
     30043.01	0.12647	1722078.0	1603595.0	945514.0	0.0712837	0.528275
     30043.53	0.12573	1709857.0	1592282.0	938899.0	0.0712415	0.528216
     30044.05	0.12823	1746123.0	1625805.0	958701.0	0.0713948	0.528179
     30044.57	0.11301	1540545.0	1434386.0	846252.0	0.0713994	0.527675
     30045.09	0.13857	1890798.0	1760586.0	1038523.0	0.0713523	0.527847
     30045.61	0.12243	1673655.0	1558033.0	919112.0	0.0715857	0.527771
     30046.13	0.11233	1519861.0	1415631.0	834989.0	0.0710435	0.527912
     30046.65	0.12013	1636701.0	1523765.0	899135.0	0.0714984	0.527506
     30047.17	0.11978	1632170.0	1520135.0	897036.0	0.0711113	0.527458
     30047.69	0.12406	1698973.0	1582243.0	933723.0	0.0711805	0.527419
     30048.21	0.11396	1548275.0	1442108.0	850934.0	0.0710355	0.527527
     30048.73	0.13464	1830320.0	1704776.0	1006145.0	0.0710571	0.527308
     30049.25	0.11452	1563017.0	1455374.0	859176.0	0.0713550	0.527044
