# Diamond Light Source
# Instrument: B18-CORE XAS Date: Thu, 28 Jul 2016 02:30:00 BST
# Ring energy:   3.0
# Ring current - start: 298.2
# Primary slits:  vertical gap=  2.4; horizontal gap= 52.0; vertical offset=  0.4; horizontal offset= -1.0
# Secondary slits:  vertical gap=  3.5; horizontal gap= 23.0; vertical offset=  5.3; horizontal offset= -14.5
# OH Mirror Coating: Pt
# White beam filter: 140um PyC
# Crystal cut: Si(311)
# PostDCM slits:  vertical gap= 18.0; horizontal gap= 28.0; vertical offset= -9.1; horizontal offset= -16.5
# Experimental slits:  vertical gap= 28.6; horizontal gap= 45.0; vertical offset=  5.7; horizontal offset= -17.5
# HR Mirror : out; Y: 37.8; Pitch:  0.3; Coating: Pt
# Mirror 2: Pitch:  2.3; Height: -6.4; Yaw: -1.6; Bend:  0.8;
# I0 Stanford sensitivity: 20 nA/V Offsets: 20 pA
# It Stanford sensitivity: 100 nA/V Offsets: 1 pA
# Iref Stanford sensitivity: 20 nA/V Offsets: 1 pA
#
# Ascii output file name: 'Andrea_Sn//ascii/262928_PtSn_OC_H2_Abu_3.dat'
# Nexus output file: '/dls/b18/data/2016/sp10306-9/Andrea_Sn//nexus/262928_PtSn_OC_H2_Abu_3.nxs'
# XML folder and files:
# /dls/b18/data/2016/sp10306-9/xml/Andrea_Sn/
# QEXAFS_Parameters
# Sample_Parameters
# Detector_Parameters
# Output_Parameters
# The contents of these files are also stored in the nexus file.
#
# Sample name: PtSn_OC_H2_Abu
# Sample description: default sample description
# Additional comments: default additional comments
# command: qexafs_energy 29000.0 30050.0 2094 263.53 qexafs_counterTimer01
#
#
# qexafs_energy	   time	       I0	       It	     Iref	  lnI0It	 lnItIref
     29000.24	0.14579	2335270.0	1836357.0	3797283.0	0.240344	-0.726502
     29000.73	0.19476	3113383.0	2449018.0	5062742.0	0.240023	-0.726221
     29001.21	0.10548	1687015.0	1326861.0	2743999.0	0.240145	-0.726600
     29001.69	0.085115	1354431.0	1065266.0	2203191.0	0.240157	-0.726682
     29002.18	0.12499	1994115.0	1568518.0	3243055.0	0.240069	-0.726385
     29002.66	0.12972	2072928.0	1630701.0	3371924.0	0.239952	-0.726474
     29003.14	0.13174	2106356.0	1656658.0	3425230.0	0.240157	-0.726366
     29003.63	0.12199	1953132.0	1536668.0	3177467.0	0.239818	-0.726468
     29004.11	0.13547	2163943.0	1702380.0	3521138.0	0.239905	-0.726757
     29004.59	0.12510	1995383.0	1570150.0	3246753.0	0.239665	-0.726484
     29005.08	0.11837	1885101.0	1482845.0	3066400.0	0.240019	-0.726542
     29005.56	0.12710	2030940.0	1597877.0	3303538.0	0.239823	-0.726318
     29006.05	0.12903	2056386.0	1617896.0	3345433.0	0.239824	-0.726470
     29006.53	0.12931	2060949.0	1621660.0	3354095.0	0.239716	-0.726732
     29007.01	0.12202	1948616.0	1533208.0	3170394.0	0.239757	-0.726494
     29007.50	0.12841	2050724.0	1613413.0	3336557.0	0.239841	-0.726588
     29007.98	0.12024	1922411.0	1513017.0	3129331.0	0.239474	-0.726714
     29008.46	0.11921	1897454.0	1493317.0	3088099.0	0.239513	-0.726556
     29008.95	0.11351	1811664.0	1426009.0	2948979.0	0.239366	-0.726579
     29009.43	0.11978	1923740.0	1513427.0	3130132.0	0.239895	-0.726699
     29009.92	0.11982	1914496.0	1506985.0	3115958.0	0.239343	-0.726426
     29010.40	0.12977	2084288.0	1640584.0	3393162.0	0.239375	-0.726710
     29010.88	0.12277	1972658.0	1552658.0	3211137.0	0.239414	-0.726657
     29011.37	0.13272	2136602.0	1681850.0	3477738.0	0.239322	-0.726488
     29011.85	0.12795	2055146.0	1617890.0	3345199.0	0.239224	-0.726403
     29012.34	0.11647	1870815.0	1472417.0	3045111.0	0.239469	-0.726632
     29012.82	0.13034	2084635.0	1641172.0	3394365.0	0.239183	-0.726706
     29013.30	0.11975	1927926.0	1517684.0	3138176.0	0.239259	-0.726456
     29013.79	0.13580	2180618.0	1717054.0	3549991.0	0.238998	-0.726335
     29014.27	0.13349	2149986.0	1692350.0	3499856.0	0.239343	-0.726604
     29014.76	0.12684	2038467.0	1604618.0	3318064.0	0.239312	-0.726496
     29015.24	0.12765	2053806.0	1616596.0	3343149.0	0.239372	-0.726590
     29015.72	0.12800	2058873.0	1620957.0	3352441.0	0.239142	-0.726672
     29016.21	0.11694	1881771.0	1481414.0	3064069.0	0.239216	-0.726747
     29016.69	0.11863	1913905.0	1506945.0	3115847.0	0.239061	-0.726417
     29017.18	0.12994	2096422.0	1650506.0	3413365.0	0.239150	-0.726617
     29017.66	0.11776	1893790.0	1490755.0	3083747.0	0.239297	-0.726863
     29018.14	0.13202	2129599.0	1676601.0	3467199.0	0.239165	-0.726579
     29018.63	0.13004	2078147.0	1636112.0	3383892.0	0.239154	-0.726704
     29019.11	0.13321	2137234.0	1682719.0	3480203.0	0.239102	-0.726680
     29019.60	0.12259	1975898.0	1555813.0	3217576.0	0.239025	-0.726630
     29020.08	0.13648	2195439.0	1728616.0	3575296.0	0.239061	-0.726727
     29020.57	0.12326	1987756.0	1565451.0	3237719.0	0.238832	-0.726695
     29021.05	0.12452	2009374.0	1582561.0	3272417.0	0.238779	-0.726484
     29021.53	0.13040	2101470.0	1655136.0	3423302.0	0.238754	-0.726722
     29022.02	0.12569	2019476.0	1590806.0	3290160.0	0.238597	-0.726695
     29022.50	0.13136	2115431.0	1666028.0	3445428.0	0.238816	-0.726606
     29022.99	0.12611	2025998.0	1595871.0	3300257.0	0.238643	-0.726581
     29023.47	0.14905	2385204.0	1879022.0	3885259.0	0.238533	-0.726438
     29023.96	0.097997	1575992.0	1241227.0	2567546.0	0.238785	-0.726850
     29024.44	0.11232	1803412.0	1420323.0	2937818.0	0.238796	-0.726783
     29024.92	0.12009	1928686.0	1518793.0	3140862.0	0.238923	-0.726581
     29025.41	0.12068	1938262.0	1526438.0	3156384.0	0.238855	-0.726490
     29025.89	0.12440	2005563.0	1579826.0	3267271.0	0.238610	-0.726640
     29026.38	0.13244	2134789.0	1682118.0	3479033.0	0.238314	-0.726701
     29026.86	0.11885	1918160.0	1511244.0	3126008.0	0.238433	-0.726824
     29027.35	0.10377	1672157.0	1317631.0	2724315.0	0.238279	-0.726382
     29027.83	0.10516	1692961.0	1333711.0	2758076.0	0.238514	-0.726568
     29028.32	0.12156	1958448.0	1542834.0	3192045.0	0.238531	-0.727041
     29028.80	0.10521	1696476.0	1336661.0	2764099.0	0.238378	-0.726540
     29029.28	0.12250	1975780.0	1556999.0	3219863.0	0.238203	-0.726579
     29029.77	0.14885	2401155.0	1892256.0	3912880.0	0.238180	-0.726504
     29030.25	0.12254	1969806.0	1551954.0	3210469.0	0.238420	-0.726902
     29030.74	0.14676	2368210.0	1865973.0	3858979.0	0.238352	-0.726620
     29031.22	0.10487	1687642.0	1329684.0	2750437.0	0.238391	-0.726818
     29031.71	0.12873	2074598.0	1634741.0	3381530.0	0.238283	-0.726844
     29032.19	0.12573	2019364.0	1591212.0	3290792.0	0.238287	-0.726632
     29032.68	0.12477	2010250.0	1584616.0	3277265.0	0.237917	-0.726667
     29033.16	0.12560	2025900.0	1596705.0	3302298.0	0.238072	-0.726676
     29033.65	0.15200	2450806.0	1931427.0	3994982.0	0.238158	-0.726780
     29034.13	0.14980	2413595.0	1902830.0	3934629.0	0.237775	-0.726474
     29034.62	0.12770	2056420.0	1621082.0	3352602.0	0.237873	-0.726643
     29035.10	0.090040	1446706.0	1140183.0	2358655.0	0.238100	-0.726903
     29035.58	0.13204	2129584.0	1678504.0	3472721.0	0.238024	-0.727036
     29036.07	0.12016	1935604.0	1525729.0	3156059.0	0.237947	-0.726852
     29036.55	0.13349	2151697.0	1696008.0	3507913.0	0.237980	-0.726744
     29037.04	0.14140	2273588.0	1792147.0	3707044.0	0.237945	-0.726820
     29037.52	0.13732	2208458.0	1740892.0	3599995.0	0.237897	-0.726535
     29038.01	0.13953	2240596.0	1766371.0	3653478.0	0.237815	-0.726752
     29038.49	0.12789	2060108.0	1624227.0	3359158.0	0.237726	-0.726658
     29038.98	0.12555	2020242.0	1592926.0	3293656.0	0.237645	-0.726426
     29039.46	0.12717	2048619.0	1615306.0	3340745.0	0.237641	-0.726669
     29039.95	0.13488	2168832.0	1709860.0	3536100.0	0.237777	-0.726613
     29040.43	0.12488	2012919.0	1587169.0	3282840.0	0.237634	-0.726757
     29040.92	0.12986	2091413.0	1649103.0	3410641.0	0.237608	-0.726669
     29041.40	0.12650	2038075.0	1607054.0	3323515.0	0.237603	-0.726620
     29041.89	0.12114	1958274.0	1544114.0	3193304.0	0.237613	-0.726606
     29042.37	0.13082	2113178.0	1666167.0	3446518.0	0.237667	-0.726839
     29042.86	0.12345	1993043.0	1571731.0	3250050.0	0.237485	-0.726493
     29043.34	0.12569	2016349.0	1590487.0	3288589.0	0.237248	-0.726418
     29043.83	0.12179	1953491.0	1540935.0	3185995.0	0.237229	-0.726375
     29044.31	0.12759	2050542.0	1617468.0	3344466.0	0.237242	-0.726445
     29044.80	0.12456	2010306.0	1585607.0	3278452.0	0.237320	-0.726404
     29045.28	0.12735	2057907.0	1623191.0	3356310.0	0.237295	-0.726448
     29045.77	0.11069	1782895.0	1406521.0	2909239.0	0.237119	-0.726772
     29046.25	0.12252	1977003.0	1559409.0	3224811.0	0.237275	-0.726567
     29046.74	0.11900	1922750.0	1516538.0	3135376.0	0.237326	-0.726319
     29047.22	0.12041	1941244.0	1531326.0	3166467.0	0.237195	-0.726482
     29047.71	0.13097	2109940.0	1664245.0	3441436.0	0.237288	-0.726517
     29048.19	0.12920	2085656.0	1645216.0	3401654.0	0.237212	-0.726390
     29048.68	0.11686	1878544.0	1481749.0	3063947.0	0.237274	-0.726481
     29049.16	0.13135	2115992.0	1669555.0	3452223.0	0.236967	-0.726461
     29049.65	0.12225	1974495.0	1557762.0	3220929.0	0.237062	-0.726420
     29050.13	0.11991	1921410.0	1515995.0	3134063.0	0.236987	-0.726258
     29050.62	0.13321	2143609.0	1691356.0	3497067.0	0.236960	-0.726394
     29051.10	0.13886	2236530.0	1764572.0	3648494.0	0.237017	-0.726406
     29051.59	0.12255	1974138.0	1557650.0	3220590.0	0.236954	-0.726386
     29052.08	0.11938	1917916.0	1513288.0	3128887.0	0.236954	-0.726393
     29052.56	0.12784	2054153.0	1620921.0	3351479.0	0.236869	-0.726407
     29053.05	0.12143	1950356.0	1539243.0	3181136.0	0.236721	-0.725948
     29053.53	0.12742	2047285.0	1615588.0	3339453.0	0.236816	-0.726108
     29054.02	0.11720	1889369.0	1491191.0	3082425.0	0.236668	-0.726141
     29054.50	0.13124	2106286.0	1661970.0	3436029.0	0.236923	-0.726313
     29054.99	0.12799	2064307.0	1628660.0	3367184.0	0.237037	-0.726319
     29055.47	0.13136	2107961.0	1663568.0	3438408.0	0.236756	-0.726044
     29055.96	0.12866	2068922.0	1632831.0	3375142.0	0.236712	-0.726122
     29056.44	0.12717	2037415.0	1608327.0	3323707.0	0.236487	-0.725886
     29056.93	0.13327	2140190.0	1689534.0	3492317.0	0.236442	-0.726113
     29057.41	0.11370	1828393.0	1442895.0	2982446.0	0.236786	-0.726092
     29057.90	0.13836	2224261.0	1755561.0	3629242.0	0.236636	-0.726235
     29058.39	0.12640	2033496.0	1605129.0	3317911.0	0.236552	-0.726131
     29058.87	0.13106	2101645.0	1658855.0	3429243.0	0.236593	-0.726212
     29059.36	0.12728	2039694.0	1610338.0	3328733.0	0.236356	-0.726148
     29059.84	0.12601	2022574.0	1596889.0	3300918.0	0.236314	-0.726143
     29060.33	0.13298	2142360.0	1691345.0	3495996.0	0.236384	-0.726094
     29060.81	0.10780	1733164.0	1367943.0	2827079.0	0.236640	-0.725936
     29061.30	0.12719	2036557.0	1608107.0	3323867.0	0.236203	-0.726071
     29061.78	0.12210	1958725.0	1546402.0	3196256.0	0.236363	-0.726049
     29062.27	0.12880	2067205.0	1632232.0	3373269.0	0.236249	-0.725934
     29062.76	0.11593	1860764.0	1469817.0	3037175.0	0.235849	-0.725790
     29063.24	0.12366	1988282.0	1570113.0	3245006.0	0.236123	-0.725970
     29063.73	0.13016	2089916.0	1650521.0	3410262.0	0.236033	-0.725698
     29064.21	0.14282	2295166.0	1812801.0	3746149.0	0.235932	-0.725855
     29064.70	0.10061	1614838.0	1275112.0	2634639.0	0.236201	-0.725712
     29065.18	0.099433	1591703.0	1257255.0	2597361.0	0.235874	-0.725565
     29065.67	0.083532	1343661.0	1061259.0	2193085.0	0.235942	-0.725853
     29066.16	0.13374	2146362.0	1695067.0	3501662.0	0.236052	-0.725515
     29066.64	0.11840	1899212.0	1499803.0	3099216.0	0.236105	-0.725815
     29067.13	0.12417	1995906.0	1576501.0	3257193.0	0.235890	-0.725658
     29067.61	0.15577	2489896.0	1966370.0	4062583.0	0.236052	-0.725630
     29068.10	0.14377	2305937.0	1821414.0	3762605.0	0.235874	-0.725498
     29068.59	0.075560	1192974.0	942260.0	1947017.0	0.235923	-0.725772
     29069.07	0.13266	2128947.0	1681321.0	3473589.0	0.236048	-0.725609
     29069.56	0.12215	1953650.0	1543654.0	3189586.0	0.235547	-0.725739
     29070.04	0.12646	2024914.0	1599398.0	3304074.0	0.235900	-0.725529
     29070.53	0.15235	2440957.0	1928379.0	3983296.0	0.235710	-0.725430
     29071.01	0.12350	1978861.0	1563536.0	3229871.0	0.235572	-0.725492
     29071.50	0.19326	3104797.0	2453459.0	5067493.0	0.235449	-0.725347
     29071.99	0.10493	1683241.0	1329858.0	2747180.0	0.235649	-0.725503
     29072.47	0.087878	1413930.0	1116742.0	2306205.0	0.235958	-0.725188
     29072.96	0.11309	1811994.0	1431399.0	2956239.0	0.235776	-0.725266
     29073.44	0.13822	2219500.0	1753651.0	3620780.0	0.235582	-0.724990
     29073.93	0.13506	2172564.0	1716406.0	3543948.0	0.235675	-0.725009
     29074.42	0.13640	2196288.0	1735199.0	3582944.0	0.235647	-0.725063
     29074.90	0.13120	2109798.0	1666902.0	3442449.0	0.235625	-0.725216
     29075.39	0.17875	2866269.0	2265170.0	4676588.0	0.235361	-0.724919
     29075.87	0.13034	2091039.0	1652512.0	3411778.0	0.235365	-0.724937
     29076.36	0.098471	1574566.0	1244004.0	2568494.0	0.235644	-0.724985
     29076.85	0.12664	2037836.0	1610149.0	3324479.0	0.235562	-0.724986
     29077.33	0.12775	2056819.0	1625138.0	3355437.0	0.235568	-0.724989
     29077.82	0.13623	2182600.0	1725172.0	3560921.0	0.235190	-0.724692
     29078.31	0.12171	1953075.0	1543822.0	3186883.0	0.235144	-0.724782
     29078.79	0.12907	2071052.0	1636291.0	3377973.0	0.235625	-0.724844
     29079.28	0.14578	2344528.0	1852916.0	3824560.0	0.235323	-0.724683
     29079.76	0.10730	1727128.0	1365062.0	2817192.0	0.235260	-0.724541
     29080.25	0.11907	1911287.0	1510869.0	3118354.0	0.235092	-0.724620
     29080.74	0.12036	1930550.0	1526007.0	3147974.0	0.235150	-0.724105
     29081.22	0.13165	2109535.0	1667795.0	3441367.0	0.234965	-0.724366
     29081.71	0.13195	2113756.0	1670882.0	3448365.0	0.235115	-0.724549
     29082.20	0.12291	1968063.0	1555986.0	3210697.0	0.234940	-0.724379
     29082.68	0.12075	1936536.0	1530823.0	3157773.0	0.235095	-0.724062
     29083.17	0.12476	2000969.0	1581621.0	3263176.0	0.235181	-0.724251
     29083.65	0.12286	1974939.0	1560991.0	3219350.0	0.235217	-0.723859
     29084.14	0.11108	1784897.0	1411039.0	2910469.0	0.235034	-0.723988
     29084.63	0.12193	1959212.0	1549183.0	3195501.0	0.234815	-0.724016
     29085.11	0.12419	1986997.0	1570992.0	3239810.0	0.234917	-0.723807
     29085.60	0.12969	2082275.0	1646494.0	3395400.0	0.234813	-0.723773
     29086.09	0.12168	1946992.0	1539666.0	3174891.0	0.234720	-0.723708
     29086.57	0.11275	1804482.0	1426949.0	2941954.0	0.234735	-0.723535
     29087.06	0.13667	2195618.0	1736206.0	3580579.0	0.234761	-0.723822
     29087.55	0.11778	1891292.0	1495347.0	3083049.0	0.234902	-0.723561
     29088.03	0.12984	2087009.0	1650212.0	3402162.0	0.234828	-0.723507
     29088.52	0.12953	2080682.0	1645280.0	3391910.0	0.234785	-0.723483
     29089.01	0.14044	2250887.0	1780069.0	3669572.0	0.234672	-0.723423
     29089.49	0.12656	2034404.0	1608613.0	3316271.0	0.234831	-0.723469
     29089.98	0.12626	2023870.0	1600554.0	3298597.0	0.234662	-0.723147
     29090.47	0.12251	1963951.0	1553283.0	3201381.0	0.234588	-0.723212
     29090.95	0.12176	1955953.0	1546623.0	3187147.0	0.234804	-0.723052
     29091.44	0.11863	1901548.0	1503551.0	3098583.0	0.234839	-0.723115
     29091.93	0.13114	2106563.0	1666122.0	3431796.0	0.234559	-0.722585
     29092.41	0.12201	1959165.0	1549529.0	3191982.0	0.234567	-0.722691
     29092.90	0.13446	2156866.0	1705718.0	3513472.0	0.234670	-0.722619
     29093.39	0.13221	2124174.0	1679896.0	3459944.0	0.234651	-0.722521
     29093.87	0.13114	2104455.0	1664430.0	3427918.0	0.234574	-0.722470
     29094.36	0.12632	2019336.0	1597263.0	3289324.0	0.234477	-0.722391
     29094.85	0.13256	2126964.0	1682275.0	3463489.0	0.234549	-0.722129
     29095.33	0.12070	1935991.0	1531164.0	3152649.0	0.234591	-0.722215
     29095.82	0.13059	2092525.0	1654909.0	3406807.0	0.234625	-0.722029
     29096.31	0.12640	2029486.0	1605190.0	3303924.0	0.234540	-0.721869
     29096.79	0.13257	2126588.0	1682175.0	3462292.0	0.234431	-0.721843
     29097.28	0.12404	1985987.0	1570775.0	3232961.0	0.234547	-0.721829
     29097.77	0.14033	2229166.0	1763350.0	3628526.0	0.234412	-0.721611
     29098.25	0.11431	1829301.0	1447514.0	2978947.0	0.234086	-0.721722
     29098.74	0.12708	2019811.0	1597606.0	3287198.0	0.234498	-0.721529
     29099.23	0.10804	1718644.0	1359272.0	2797073.0	0.234586	-0.721624
     29099.71	0.12641	2011060.0	1590786.0	3272776.0	0.234434	-0.721410
     29100.20	0.11915	1899554.0	1502553.0	3090355.0	0.234453	-0.721120
     29100.69	0.13277	2123415.0	1680041.0	3455288.0	0.234207	-0.721088
     29101.17	0.13137	2102664.0	1663858.0	3421601.0	0.234066	-0.720970
     29101.66	0.11264	1804470.0	1427822.0	2936338.0	0.234117	-0.721013
     29102.15	0.12434	1986691.0	1572335.0	3232351.0	0.233909	-0.720648
     29102.64	0.10238	1638064.0	1296051.0	2664010.0	0.234193	-0.720511
     29103.12	0.10942	1749243.0	1383953.0	2844383.0	0.234239	-0.720402
     29103.61	0.11995	1914935.0	1514987.0	3113835.0	0.234277	-0.720448
     29104.10	0.11895	1898952.0	1503102.0	3088232.0	0.233771	-0.720068
     29104.58	0.11495	1837287.0	1454156.0	2987721.0	0.233864	-0.720085
     29105.07	0.12249	1955626.0	1548304.0	3179708.0	0.233550	-0.719629
     29105.56	0.12717	2029720.0	1606199.0	3299184.0	0.234027	-0.719805
     29106.04	0.13608	2167811.0	1715403.0	3522673.0	0.234070	-0.719572
     29106.53	0.098043	1562641.0	1236551.0	2539712.0	0.234051	-0.719725
     29107.02	0.12205	1947035.0	1541199.0	3163594.0	0.233747	-0.719148
     29107.51	0.13525	2159231.0	1708524.0	3507198.0	0.234122	-0.719188
     29107.99	0.12599	2011913.0	1592306.0	3267080.0	0.233903	-0.718713
     29108.48	0.13774	2198627.0	1740046.0	3570661.0	0.233922	-0.718839
     29108.97	0.12671	2023340.0	1601125.0	3285403.0	0.234043	-0.718783
     29109.46	0.14620	2336361.0	1848774.0	3791874.0	0.234072	-0.718338
     29109.94	0.11992	1913760.0	1514863.0	3106614.0	0.233745	-0.718208
     29110.43	0.12339	1969968.0	1559562.0	3197536.0	0.233612	-0.717976
     29110.92	0.12937	2072810.0	1640597.0	3362837.0	0.233845	-0.717725
     29111.40	0.12261	1960400.0	1551815.0	3180237.0	0.233723	-0.717531
     29111.89	0.12825	2051477.0	1624049.0	3327674.0	0.233638	-0.717351
     29112.38	0.13801	2208940.0	1748221.0	3582216.0	0.233914	-0.717383
     29112.87	0.13016	2078266.0	1645406.0	3370852.0	0.233547	-0.717178
     29113.35	0.13261	2120531.0	1678700.0	3437734.0	0.233647	-0.716793
     29113.84	0.13949	2223305.0	1760128.0	3604010.0	0.233608	-0.716661
     29114.33	0.14096	2242084.0	1775081.0	3633993.0	0.233560	-0.716486
     29114.82	0.13127	2097695.0	1660697.0	3398667.0	0.233602	-0.716146
     29115.30	0.13263	2120467.0	1678834.0	3435533.0	0.233537	-0.716073
     29115.79	0.14091	2249572.0	1781209.0	3644321.0	0.233448	-0.715878
     29116.28	0.12829	2033271.0	1609300.0	3291595.0	0.233847	-0.715573
     29116.77	0.13156	2068252.0	1637191.0	3347373.0	0.233722	-0.715194
     29117.25	0.12852	2038447.0	1614087.0	3299647.0	0.233419	-0.715046
     29117.74	0.12167	1932024.0	1529770.0	3126863.0	0.233451	-0.714913
     29118.23	0.11998	1913422.0	1514937.0	3096201.0	0.233519	-0.714802
     29118.72	0.12416	1976260.0	1564302.0	3196013.0	0.233766	-0.714464
     29119.20	0.12249	1955738.0	1548354.0	3162635.0	0.233575	-0.714213
     29119.69	0.12406	1978572.0	1566216.0	3198231.0	0.233713	-0.713935
     29120.18	0.13032	2057743.0	1628963.0	3325295.0	0.233666	-0.713615
     29120.67	0.11934	1891303.0	1497235.0	3055151.0	0.233646	-0.713209
     29121.15	0.13334	2118367.0	1677182.0	3421659.0	0.233531	-0.713011
     29121.64	0.12356	1968752.0	1558945.0	3180098.0	0.233391	-0.712903
     29122.13	0.11764	1872470.0	1482600.0	3023775.0	0.233461	-0.712709
     29122.62	0.11948	1900262.0	1504511.0	3066917.0	0.233524	-0.712205
     29123.10	0.11792	1883173.0	1490985.0	3038774.0	0.233521	-0.712017
     29123.59	0.11940	1907028.0	1509877.0	3076187.0	0.233518	-0.711663
     29124.08	0.12458	1989559.0	1575504.0	3208924.0	0.233338	-0.711360
     29124.57	0.12413	1983492.0	1570520.0	3197786.0	0.233452	-0.711052
     29125.06	0.12117	1927957.0	1526529.0	3107284.0	0.233464	-0.710753
     29125.54	0.11211	1785600.0	1413976.0	2877355.0	0.233349	-0.710466
     29126.03	0.12254	1953202.0	1546709.0	3145922.0	0.233341	-0.709978
     29126.52	0.12370	1973300.0	1562646.0	3177613.0	0.233327	-0.709750
     29127.01	0.13171	2099752.0	1662771.0	3379880.0	0.233334	-0.709355
     29127.49	0.13042	2075428.0	1643654.0	3339318.0	0.233246	-0.708845
     29127.98	0.13785	2197954.0	1740838.0	3535536.0	0.233160	-0.708498
     29128.47	0.12503	1997379.0	1581610.0	3211274.0	0.233393	-0.708224
     29128.96	0.13592	2166144.0	1715295.0	3481730.0	0.233364	-0.707944
     29129.45	0.12733	2027595.0	1605587.0	3257827.0	0.233361	-0.707571
     29129.93	0.12266	1956209.0	1549471.0	3142318.0	0.233095	-0.707047
     29130.42	0.10690	1706036.0	1351246.0	2738885.0	0.233145	-0.706524
     29130.91	0.13542	2159574.0	1710550.0	3467010.0	0.233096	-0.706478
     29131.40	0.12156	1936694.0	1533922.0	3107739.0	0.233155	-0.706068
     29131.89	0.11993	1915237.0	1516690.0	3071393.0	0.233311	-0.705601
     29132.37	0.12601	2009540.0	1591262.0	3220527.0	0.233378	-0.705018
     29132.86	0.13997	2234141.0	1769450.0	3579658.0	0.233188	-0.704599
     29133.35	0.11655	1858720.0	1472258.0	2977413.0	0.233091	-0.704258
     29133.84	0.13003	2072300.0	1641347.0	3317768.0	0.233142	-0.703775
     29134.33	0.12491	1989127.0	1575586.0	3182980.0	0.233069	-0.703191
     29134.81	0.12391	1974497.0	1563569.0	3157838.0	0.233343	-0.702917
     29135.30	0.13806	2190449.0	1735181.0	3501867.0	0.232995	-0.702185
     29135.79	0.13170	2095190.0	1659636.0	3347925.0	0.233046	-0.701742
     29136.28	0.12436	1977035.0	1565781.0	3157055.0	0.233214	-0.701255
     29136.77	0.12576	2000081.0	1583949.0	3192895.0	0.233267	-0.701007
     29137.25	0.13927	2219392.0	1757151.0	3539471.0	0.233540	-0.700284
     29137.74	0.11840	1879215.0	1488086.0	2995438.0	0.233363	-0.699600
     29138.23	0.12490	1988486.0	1574658.0	3168912.0	0.233335	-0.699350
     29138.72	0.12436	1980381.0	1568196.0	3153637.0	0.233363	-0.698630
     29139.21	0.13008	2069774.0	1639109.0	3293908.0	0.233287	-0.697922
     29139.70	0.12253	1949299.0	1543595.0	3101199.0	0.233356	-0.697675
     29140.18	0.12407	1975055.0	1563840.0	3139080.0	0.233452	-0.696785
     29140.67	0.12740	2031157.0	1608062.0	3226265.0	0.233576	-0.696295
     29141.16	0.12895	2051386.0	1624912.0	3257552.0	0.233062	-0.695522
     29141.65	0.11100	1765950.0	1398630.0	2802575.0	0.233196	-0.695045
     29142.14	0.10977	1738359.0	1376373.0	2756126.0	0.233490	-0.694374
     29142.63	0.12653	2013912.0	1594604.0	3190835.0	0.233454	-0.693657
     29143.11	0.11407	1817382.0	1439089.0	2877398.0	0.233387	-0.692876
     29143.60	0.10975	1744893.0	1381858.0	2761028.0	0.233264	-0.692174
     29144.09	0.12335	1957261.0	1549876.0	3094588.0	0.233371	-0.691480
     29144.58	0.12031	1912558.0	1514715.0	3021167.0	0.233214	-0.690416
     29145.07	0.11495	1830696.0	1449468.0	2889016.0	0.233500	-0.689719
     29145.56	0.11568	1841543.0	1458236.0	2904321.0	0.233376	-0.688972
     29146.04	0.13610	2160838.0	1710628.0	3404674.0	0.233636	-0.688289
     29146.53	0.11971	1901528.0	1505481.0	2994707.0	0.233545	-0.687734
     29147.02	0.11900	1894210.0	1499801.0	2979905.0	0.233469	-0.686559
     29147.51	0.13632	2156172.0	1707020.0	3388717.0	0.233585	-0.685702
     29148.00	0.12589	2001911.0	1584537.0	3142220.0	0.233810	-0.684637
     29148.49	0.11950	1889892.0	1496190.0	2965005.0	0.233598	-0.683957
     29148.98	0.14476	2302585.0	1822747.0	3608493.0	0.233688	-0.682946
     29149.46	0.12150	1927462.0	1525912.0	3017548.0	0.233612	-0.681852
     29149.95	0.15685	2487183.0	1968836.0	3890183.0	0.233708	-0.681014
     29150.44	0.10466	1665006.0	1317622.0	2600572.0	0.234000	-0.679903
     29150.93	0.12246	1941898.0	1537377.0	3031048.0	0.233588	-0.678831
     29151.42	0.12891	2049765.0	1622028.0	3194275.0	0.234048	-0.677683
     29151.91	0.13318	2117031.0	1675958.0	3296556.0	0.233630	-0.676493
     29152.40	0.13524	2145080.0	1698117.0	3335632.0	0.233657	-0.675142
     29152.88	0.12998	2064479.0	1633805.0	3205870.0	0.233966	-0.674072
     29153.37	0.13319	2116945.0	1675149.0	3281896.0	0.234072	-0.672519
     29153.86	0.15628	2481818.0	1964431.0	3844588.0	0.233789	-0.671464
     29154.35	0.10898	1729968.0	1368785.0	2674394.0	0.234179	-0.669799
     29154.84	0.12989	2057482.0	1627918.0	3177040.0	0.234181	-0.668648
     29155.33	0.12772	2024576.0	1602017.0	3121393.0	0.234097	-0.667016
     29155.82	0.12633	2007188.0	1587923.0	3088967.0	0.234308	-0.665410
     29156.31	0.14247	2258795.0	1786918.0	3471181.0	0.234339	-0.664003
     29156.79	0.12577	1992023.0	1575903.0	3056390.0	0.234322	-0.662406
     29157.28	0.12222	1936466.0	1531893.0	2965722.0	0.234360	-0.660616
     29157.77	0.13146	2078785.0	1644582.0	3177940.0	0.234297	-0.658747
     29158.26	0.12871	2039215.0	1613165.0	3112301.0	0.234367	-0.657164
     29158.75	0.12304	1953960.0	1545150.0	2975098.0	0.234737	-0.655156
     29159.24	0.12713	2009847.0	1589289.0	3054853.0	0.234772	-0.653445
     29159.73	0.12048	1902386.0	1504189.0	2884737.0	0.234855	-0.651180
     29160.22	0.13340	2114229.0	1671393.0	3198744.0	0.235033	-0.649101
     29160.71	0.12639	2001559.0	1581971.0	3021045.0	0.235255	-0.646931
     29161.19	0.12571	1983994.0	1568211.0	2988003.0	0.235177	-0.644670
     29161.68	0.12594	1988080.0	1571254.0	2987093.0	0.235295	-0.642427
     29162.17	0.11979	1901662.0	1502559.0	2848429.0	0.235559	-0.639598
     29162.66	0.12369	1959093.0	1547867.0	2927203.0	0.235604	-0.637170
     29163.15	0.12356	1957024.0	1546153.0	2915086.0	0.235655	-0.634129
     29163.64	0.12145	1922648.0	1518482.0	2855392.0	0.235992	-0.631498
     29164.13	0.11571	1827764.0	1444007.0	2706074.0	0.235671	-0.628077
     29164.62	0.12281	1945372.0	1535857.0	2868609.0	0.236365	-0.624739
     29165.11	0.11820	1861659.0	1469633.0	2736090.0	0.236455	-0.621517
     29165.60	0.12212	1924577.0	1519466.0	2819091.0	0.236347	-0.618056
     29166.09	0.12424	1961527.0	1548116.0	2860781.0	0.236685	-0.614056
     29166.57	0.12958	2046639.0	1615004.0	2973033.0	0.236862	-0.610245
     29167.06	0.12936	2042103.0	1611209.0	2952580.0	0.236995	-0.605695
     29167.55	0.12299	1946643.0	1535635.0	2803006.0	0.237162	-0.601748
     29168.04	0.14096	2225203.0	1754707.0	3186730.0	0.237546	-0.596693
     29168.53	0.12301	1944332.0	1533242.0	2770748.0	0.237534	-0.591733
     29169.02	0.13099	2060415.0	1624017.0	2918985.0	0.238005	-0.586333
     29169.51	0.12436	1960678.0	1545373.0	2762084.0	0.238025	-0.580720
     29170.00	0.12023	1902644.0	1498948.0	2662283.0	0.238481	-0.574420
     29170.49	0.13006	2051358.0	1615963.0	2851237.0	0.238571	-0.567822
     29170.98	0.12089	1906019.0	1500666.0	2629632.0	0.239108	-0.560935
     29171.47	0.11982	1896483.0	1492375.0	2595504.0	0.239632	-0.553412
     29171.96	0.12689	2003305.0	1576022.0	2718962.0	0.239894	-0.545346
     29172.45	0.12234	1935601.0	1522098.0	2603213.0	0.240328	-0.536657
     29172.94	0.13106	2074800.0	1631091.0	2763129.0	0.240616	-0.527115
     29173.42	0.12554	1981424.0	1557151.0	2611184.0	0.240958	-0.516946
     29173.91	0.13942	2203223.0	1730214.0	2870434.0	0.241676	-0.506218
     29174.40	0.13499	2136145.0	1676743.0	2749174.0	0.242150	-0.494447
     29174.89	0.12277	1942234.0	1523139.0	2465149.0	0.243066	-0.481479
     29175.38	0.12265	1943209.0	1523546.0	2429989.0	0.243300	-0.466846
     29175.87	0.12905	2040767.0	1599411.0	2512725.0	0.243690	-0.451732
     29176.36	0.12821	2030648.0	1590119.0	2455145.0	0.244546	-0.434377
     29176.85	0.13621	2151402.0	1683705.0	2548351.0	0.245123	-0.414450
     29177.34	0.12583	1987255.0	1553359.0	2302474.0	0.246335	-0.393565
     29177.83	0.11209	1772202.0	1384139.0	2006820.0	0.247145	-0.371473
     29178.32	0.12072	1909645.0	1490174.0	2106436.0	0.248024	-0.346105
     29178.81	0.12560	1981569.0	1543928.0	2116658.0	0.249559	-0.315509
     29179.30	0.13058	2061274.0	1604237.0	2134208.0	0.250676	-0.285447
     29179.79	0.13005	2054276.0	1596513.0	2043556.0	0.252102	-0.246870
     29180.28	0.12192	1922524.0	1491615.0	1836017.0	0.253779	-0.207739
     29180.77	0.12118	1916180.0	1484219.0	1745491.0	0.255445	-0.162147
     29181.26	0.10366	1638339.0	1266718.0	1417669.0	0.257254	-0.112585
     29181.75	0.11367	1794103.0	1384089.0	1462040.0	0.259463	-0.0547906
     29182.24	0.11514	1817892.0	1398942.0	1390598.0	0.261961	0.00598237
     29182.73	0.11014	1736576.0	1332634.0	1238423.0	0.264758	0.0733186
     29183.22	0.11972	1887528.0	1444492.0	1248174.0	0.267510	0.146076
     29183.71	0.11824	1871231.0	1427234.0	1148066.0	0.270858	0.217660
     29184.20	0.11618	1839381.0	1397985.0	1043661.0	0.274397	0.292297
     29184.68	0.13301	2102958.0	1592273.0	1098281.0	0.278182	0.371416
     29185.17	0.11641	1836226.0	1383883.0	881871.0	0.282819	0.450603
     29185.66	0.12499	1975362.0	1482573.0	877754.0	0.286973	0.524168
     29186.15	0.12875	2028393.0	1514981.0	834239.0	0.291841	0.596638
     29186.64	0.13217	2084720.0	1549259.0	800439.0	0.296858	0.660372
     29187.13	0.11968	1890993.0	1397941.0	682345.0	0.302102	0.717220
     29187.62	0.14181	2233651.0	1641783.0	761812.0	0.307855	0.767838
     29188.11	0.13474	2125065.0	1552256.0	689484.0	0.314093	0.811521
     29188.60	0.12260	1938463.0	1408742.0	607148.0	0.319198	0.841680
     29189.09	0.12740	2011929.0	1452700.0	611402.0	0.325670	0.865424
     29189.58	0.12369	1953393.0	1402603.0	581670.0	0.331238	0.880182
     29190.07	0.12936	2046279.0	1460032.0	600865.0	0.337565	0.887843
     29190.56	0.13510	2133688.0	1514076.0	623746.0	0.343047	0.886817
     29191.05	0.13332	2105277.0	1487226.0	616546.0	0.347534	0.880535
     29191.54	0.12689	2003064.0	1408427.0	589649.0	0.352205	0.870701
     29192.03	0.14025	2214707.0	1552153.0	657749.0	0.355477	0.858575
     29192.52	0.12750	2012251.0	1405926.0	605275.0	0.358558	0.842769
     29193.01	0.13404	2113802.0	1474167.0	645126.0	0.360395	0.826403
     29193.50	0.13528	2136487.0	1487708.0	661373.0	0.361926	0.810674
     29193.99	0.13296	2101063.0	1462043.0	660976.0	0.362609	0.793873
     29194.48	0.14255	2246835.0	1564241.0	718828.0	0.362122	0.777534
     29194.97	0.12294	1940704.0	1352040.0	630595.0	0.361436	0.762706
     29195.46	0.12718	2009797.0	1401943.0	663138.0	0.360175	0.748631
     29195.95	0.12580	1987174.0	1389170.0	665259.0	0.358007	0.736285
     29196.44	0.12254	1933892.0	1354418.0	656049.0	0.356163	0.724892
     29196.93	0.12065	1902197.0	1335885.0	653730.0	0.353416	0.714655
     29197.42	0.12989	2051635.0	1444131.0	712883.0	0.351129	0.705946
     29197.92	0.12374	1954224.0	1379484.0	686569.0	0.348284	0.697758
     29198.41	0.12441	1960568.0	1387979.0	695308.0	0.345385	0.691249
     29198.90	0.12902	2034191.0	1443878.0	727481.0	0.342766	0.685500
     29199.39	0.12315	1943324.0	1383161.0	699893.0	0.340028	0.681199
     29199.88	0.11957	1887534.0	1346711.0	684223.0	0.337606	0.677137
     29200.37	0.13468	2124394.0	1519880.0	773913.0	0.334855	0.674927
     29200.86	0.11671	1839579.0	1318779.0	672914.0	0.332830	0.672844
     29201.35	0.12294	1935665.0	1390224.0	709993.0	0.330986	0.671965
     29201.84	0.12209	1919256.0	1380866.0	705453.0	0.329227	0.671626
     29202.33	0.12302	1940044.0	1397768.0	713637.0	0.327834	0.672258
     29202.82	0.12408	1955512.0	1411361.0	719979.0	0.326098	0.673088
     29203.31	0.12305	1939805.0	1401987.0	713763.0	0.324697	0.675095
     29203.80	0.11912	1869752.0	1352695.0	687288.0	0.323707	0.677101
     29204.29	0.12359	1942712.0	1407022.0	712604.0	0.322610	0.680305
     29204.78	0.12614	1987904.0	1441141.0	727902.0	0.321646	0.683024
     29205.27	0.11824	1858393.0	1348975.0	679083.0	0.320367	0.686357
     29205.76	0.13342	2098993.0	1524196.0	764874.0	0.319991	0.689511
     29206.25	0.12773	2008869.0	1459952.0	730506.0	0.319168	0.692421
     29206.74	0.13505	2121402.0	1542703.0	769111.0	0.318541	0.696056
     29207.23	0.12225	1916433.0	1394423.0	693150.0	0.317985	0.698990
     29207.72	0.13093	2057644.0	1497939.0	742547.0	0.317471	0.701759
     29208.21	0.12090	1896103.0	1380797.0	683046.0	0.317140	0.703854
     29208.70	0.12519	1963515.0	1430235.0	706344.0	0.316897	0.705492
     29209.19	0.12948	2027763.0	1478097.0	728590.0	0.316178	0.707400
     29209.69	0.11657	1832418.0	1335394.0	657375.0	0.316410	0.708727
     29210.18	0.13124	2057778.0	1500004.0	737732.0	0.316159	0.709642
     29210.67	0.12202	1905716.0	1389774.0	683203.0	0.315717	0.710104
     29211.16	0.12528	1970507.0	1437355.0	706206.0	0.315486	0.710653
     29211.65	0.12638	1979192.0	1444042.0	709790.0	0.315243	0.710232
     29212.14	0.13192	2068691.0	1509904.0	742558.0	0.314870	0.709700
     29212.63	0.12260	1921795.0	1403061.0	690866.0	0.314603	0.708466
     29213.12	0.12756	1997832.0	1459364.0	719854.0	0.314062	0.706708
     29213.61	0.13880	2173160.0	1587751.0	785305.0	0.313864	0.704002
     29214.10	0.12035	1889395.0	1381150.0	684470.0	0.313340	0.702027
     29214.59	0.13357	2103472.0	1537937.0	764721.0	0.313147	0.698686
     29215.08	0.13501	2110031.0	1543567.0	770322.0	0.312607	0.695043
     29215.57	0.13051	2045569.0	1497053.0	750173.0	0.312177	0.690950
     29216.06	0.12534	1957241.0	1432953.0	721466.0	0.311798	0.686207
     29216.56	0.11757	1845579.0	1351454.0	683506.0	0.311612	0.681701
     29217.05	0.12603	1975489.0	1447278.0	734958.0	0.311131	0.677626
     29217.54	0.12161	1911415.0	1399828.0	713693.0	0.311494	0.673652
     29218.03	0.12909	2019472.0	1479861.0	758062.0	0.310888	0.668938
     29218.52	0.11569	1808217.0	1324895.0	681493.0	0.311008	0.664803
     29219.01	0.12966	2032126.0	1489125.0	768720.0	0.310894	0.661217
     29219.50	0.14461	2264408.0	1659781.0	859097.0	0.310628	0.658559
     29219.99	0.10486	1642553.0	1203833.0	624037.0	0.310741	0.657056
     29220.48	0.10256	1600649.0	1172782.0	608948.0	0.311030	0.655401
     29220.97	0.10218	1593545.0	1167848.0	606549.0	0.310798	0.655133
     29221.47	0.12939	2027486.0	1485673.0	771339.0	0.310929	0.655495
     29221.96	0.11208	1756023.0	1286633.0	667637.0	0.311023	0.656039
     29222.45	0.11623	1820717.0	1334125.0	690744.0	0.310955	0.658262
     29222.94	0.12761	1997764.0	1463857.0	756280.0	0.310954	0.660418
     29223.43	0.12232	1910243.0	1399347.0	720740.0	0.311225	0.663483
     29223.92	0.098076	1539037.0	1127253.0	578750.0	0.311373	0.666668
     29224.41	0.12071	1890752.0	1385143.0	708865.0	0.311171	0.669894
     29224.90	0.12822	1999339.0	1464529.0	746649.0	0.311283	0.673694
     29225.39	0.13898	2174470.0	1592671.0	808672.0	0.311372	0.677774
     29225.89	0.12438	1940058.0	1420602.0	718491.0	0.311637	0.681683
     29226.38	0.14701	2304558.0	1687462.0	850527.0	0.311663	0.685125
     29226.87	0.14040	2196930.0	1608988.0	806955.0	0.311456	0.690093
     29227.36	0.16760	2598273.0	1902674.0	950909.0	0.311587	0.693597
     29227.85	0.091160	1427908.0	1045533.0	520629.0	0.311684	0.697244
     29228.34	0.12058	1882382.0	1378178.0	683584.0	0.311776	0.701168
     29228.83	0.12149	1900528.0	1390878.0	686812.0	0.312197	0.705630
     29229.32	0.12025	1879203.0	1375302.0	676597.0	0.312174	0.709353
     29229.81	0.12850	1989565.0	1455805.0	713208.0	0.312357	0.713541
     29230.31	0.13620	2125011.0	1554079.0	758488.0	0.312894	0.717311
     29230.80	0.13868	2167473.0	1585296.0	770810.0	0.312791	0.721085
     29231.29	0.16018	2501639.0	1828553.0	885845.0	0.313421	0.724738
     29231.78	0.10216	1595859.0	1166212.0	562512.0	0.313651	0.729104
     29232.27	0.12484	1937804.0	1415567.0	680294.0	0.314025	0.732760
     29232.76	0.13481	2097290.0	1531406.0	733510.0	0.314460	0.736100
     29233.25	0.13199	2048987.0	1495627.0	713732.0	0.314800	0.739793
     29233.75	0.13524	2101562.0	1533309.0	729125.0	0.315253	0.743338
     29234.24	0.13640	2125712.0	1550006.0	735051.0	0.315848	0.746074
     29234.73	0.19179	2988641.0	2178095.0	1029770.0	0.316368	0.749115
     29235.22	0.10461	1633552.0	1190447.0	561875.0	0.316428	0.750805
     29235.71	0.085179	1333389.0	971145.0	457229.0	0.317003	0.753291
     29236.20	0.11321	1753127.0	1276063.0	600336.0	0.317621	0.754045
     29236.69	0.13235	2060838.0	1500011.0	704848.0	0.317640	0.755246
     29237.19	0.11496	1796458.0	1306710.0	613718.0	0.318304	0.755732
     29237.68	0.13006	2028501.0	1475412.0	693274.0	0.318360	0.755267
     29238.17	0.12340	1918900.0	1395038.0	655900.0	0.318830	0.754669
     29238.66	0.15741	2447663.0	1779172.0	837676.0	0.318986	0.753272
     29239.15	0.10812	1682828.0	1222748.0	576389.0	0.319375	0.752073
     29239.64	0.11051	1716385.0	1246986.0	589050.0	0.319491	0.749974
     29240.14	0.12309	1915988.0	1391806.0	659234.0	0.319631	0.747279
     29240.63	0.11160	1743654.0	1266112.0	601453.0	0.320032	0.744358
     29241.12	0.12601	1964464.0	1426441.0	679608.0	0.320037	0.741422
     29241.61	0.11418	1779092.0	1291618.0	617203.0	0.320207	0.738453
     29242.10	0.12542	1945149.0	1412423.0	677738.0	0.320032	0.734301
     29242.59	0.13292	2070301.0	1502982.0	723889.0	0.320243	0.730568
     29243.09	0.11259	1743290.0	1265274.0	612023.0	0.320485	0.726274
     29243.58	0.12240	1897633.0	1376746.0	668583.0	0.320885	0.722317
     29244.07	0.12062	1875040.0	1360598.0	663097.0	0.320706	0.718758
     29244.56	0.13099	2041986.0	1481244.0	725045.0	0.321041	0.714404
     29245.05	0.12691	1972269.0	1430923.0	703448.0	0.320865	0.710081
     29245.55	0.12140	1891210.0	1371731.0	676665.0	0.321143	0.706652
     29246.04	0.14165	2205586.0	1599663.0	792229.0	0.321200	0.702698
     29246.53	0.13529	2088425.0	1514783.0	753222.0	0.321138	0.698667
     29247.02	0.11474	1793931.0	1300953.0	649390.0	0.321312	0.694819
     29247.51	0.12486	1931288.0	1400613.0	701648.0	0.321277	0.691233
     29248.00	0.12247	1892304.0	1372085.0	689638.0	0.321464	0.687920
     29248.50	0.12719	1976364.0	1432994.0	722452.0	0.321493	0.684870
     29248.99	0.12680	1977254.0	1433586.0	724799.0	0.321530	0.682040
     29249.48	0.12266	1912727.0	1386367.0	702779.0	0.321843	0.679399
     29249.97	0.12438	1931683.0	1400091.0	711315.0	0.321854	0.677177
     29250.46	0.14417	2248924.0	1629510.0	830315.0	0.322173	0.674229
     29250.96	0.11499	1788845.0	1296677.0	661954.0	0.321765	0.672364
     29251.45	0.12527	1944763.0	1408915.0	720481.0	0.322320	0.670656
     29251.94	0.12829	1998270.0	1447876.0	741062.0	0.322184	0.669769
     29252.43	0.13186	2059750.0	1492194.0	764445.0	0.322337	0.668853
     29252.92	0.12874	2004197.0	1452109.0	744377.0	0.322226	0.668225
     29253.42	0.12863	2000532.0	1449447.0	743440.0	0.322231	0.667649
     29253.91	0.15272	2370163.0	1716995.0	880700.0	0.322383	0.667614
     29254.40	0.11065	1720091.0	1246603.0	639263.0	0.321955	0.667862
     29254.89	0.11794	1822746.0	1320798.0	677088.0	0.322108	0.668190
     29255.39	0.12753	1959812.0	1419945.0	727667.0	0.322230	0.668530
     29255.88	0.12854	1992310.0	1443660.0	739004.0	0.322113	0.669634
     29256.37	0.12085	1869446.0	1354789.0	692931.0	0.321996	0.670471
     29256.86	0.12432	1938153.0	1405071.0	717735.0	0.321648	0.671743
     29257.35	0.12660	1962170.0	1422226.0	725086.0	0.321828	0.673688
     29257.85	0.16580	2562084.0	1857602.0	945375.0	0.321535	0.675460
     29258.34	0.12390	1914162.0	1388054.0	705323.0	0.321377	0.677002
     29258.83	0.10072	1556357.0	1128658.0	572306.0	0.321319	0.679111
     29259.32	0.11820	1831354.0	1328429.0	671881.0	0.321059	0.681671
     29259.82	0.084836	1324628.0	960973.0	485010.0	0.320941	0.683777
     29260.31	0.10479	1627394.0	1180951.0	594113.0	0.320660	0.687006
     29260.80	0.13759	2131392.0	1547196.0	776246.0	0.320331	0.689730
     29261.29	0.15487	2400230.0	1742438.0	871675.0	0.320279	0.692624
     29261.79	0.15656	2413409.0	1753169.0	873997.0	0.319615	0.696103
     29262.28	0.084395	1311818.0	953167.0	473678.0	0.319379	0.699262
     29262.77	0.069952	1075647.0	781849.0	387498.0	0.319016	0.701951
     29263.26	0.12598	1935387.0	1406638.0	694955.0	0.319105	0.705111
     29263.75	0.11142	1732375.0	1259779.0	620351.0	0.318557	0.708406
     29264.25	0.12932	2000508.0	1454886.0	713702.0	0.318474	0.712217
     29264.74	0.14380	2229561.0	1621917.0	792932.0	0.318196	0.715627
     29265.23	0.14105	2183265.0	1588963.0	774117.0	0.317740	0.719114
     29265.72	0.13828	2143249.0	1560013.0	757848.0	0.317629	0.721967
     29266.22	0.12763	1959487.0	1426925.0	690962.0	0.317161	0.725192
     29266.71	0.10899	1686296.0	1228370.0	593343.0	0.316846	0.727671
     29267.20	0.12098	1879659.0	1369320.0	659437.0	0.316776	0.730683
     29267.70	0.13035	2001466.0	1458681.0	700709.0	0.316347	0.733195
     29268.19	0.13513	2092736.0	1525485.0	730792.0	0.316160	0.735939
     29268.68	0.11932	1825817.0	1331440.0	636666.0	0.315766	0.737771
     29269.17	0.14159	2180023.0	1590366.0	759378.0	0.315371	0.739220
     29269.67	0.14060	2179233.0	1590214.0	757634.0	0.315104	0.741423
     29270.16	0.12361	1911280.0	1394627.0	664139.0	0.315146	0.741891
     29270.65	0.13433	2071145.0	1511739.0	718636.0	0.314841	0.743661
     29271.14	0.13081	2024415.0	1478179.0	703080.0	0.314470	0.743096
     29271.64	0.13328	2073361.0	1513783.0	719377.0	0.314559	0.743982
     29272.13	0.13327	2066436.0	1509552.0	717302.0	0.314012	0.744071
     29272.62	0.13266	2057497.0	1503120.0	714361.0	0.313947	0.743910
     29273.11	0.13540	2091288.0	1528129.0	727019.0	0.313736	0.742847
     29273.61	0.12688	1968794.0	1438940.0	684821.0	0.313514	0.742505
     29274.10	0.12451	1933452.0	1413110.0	673045.0	0.313514	0.741736
     29274.59	0.11778	1811398.0	1323936.0	631795.0	0.313490	0.739799
     29275.09	0.13200	2044606.0	1494667.0	714100.0	0.313302	0.738636
     29275.58	0.13037	2002034.0	1463568.0	700364.0	0.313286	0.737032
     29276.07	0.12421	1912017.0	1398121.0	670263.0	0.313030	0.735214
     29276.56	0.13515	2094820.0	1531279.0	735202.0	0.313364	0.733713
     29277.06	0.12179	1885670.0	1378787.0	662983.0	0.313079	0.732210
     29277.55	0.12061	1855850.0	1356953.0	654402.0	0.313101	0.729275
     29278.04	0.12143	1869486.0	1367596.0	660570.0	0.312609	0.727707
     29278.54	0.12030	1848342.0	1352013.0	653774.0	0.312694	0.726588
     29279.03	0.13208	2023118.0	1479986.0	717737.0	0.312607	0.723685
     29279.52	0.12234	1892103.0	1384087.0	672447.0	0.312648	0.721873
     29280.02	0.11081	1710403.0	1251347.0	609134.0	0.312508	0.719938
     29280.51	0.11927	1851891.0	1355173.0	660972.0	0.312278	0.717973
     29281.00	0.11274	1742300.0	1274776.0	623011.0	0.312436	0.715962
     29281.49	0.12744	1954137.0	1430210.0	700026.0	0.312127	0.714459
     29281.99	0.12265	1890876.0	1383813.0	678465.0	0.312197	0.712765
     29282.48	0.12430	1919275.0	1404717.0	689838.0	0.312112	0.711134
     29282.97	0.13514	2082656.0	1524342.0	749574.0	0.312081	0.709813
     29283.47	0.12464	1921168.0	1406093.0	692770.0	0.312118	0.707872
     29283.96	0.13242	2032711.0	1488024.0	733726.0	0.311921	0.707069
     29284.45	0.16030	2480462.0	1815697.0	897014.0	0.311975	0.705153
     29284.95	0.11157	1717622.0	1257627.0	621745.0	0.311714	0.704452
     29285.44	0.11017	1698347.0	1243466.0	615292.0	0.311753	0.703561
     29285.93	0.11941	1845221.0	1351449.0	669673.0	0.311422	0.702143
     29286.43	0.12294	1900821.0	1391666.0	690295.0	0.311784	0.701138
     29286.92	0.11674	1806887.0	1323051.0	656525.0	0.311665	0.700735
     29287.41	0.13472	2083406.0	1525634.0	758006.0	0.311594	0.699474
     29287.91	0.13303	2052832.0	1503081.0	747424.0	0.311703	0.698640
     29288.40	0.14769	2273436.0	1665006.0	828194.0	0.311464	0.698337
     29288.89	0.10179	1578072.0	1155811.0	574957.0	0.311402	0.698262
     29289.39	0.12514	1933818.0	1416427.0	705108.0	0.311359	0.697542
     29289.88	0.12213	1887668.0	1383167.0	688777.0	0.310966	0.697214
     29290.37	0.12874	1988141.0	1456394.0	725586.0	0.311237	0.696739
     29290.87	0.13574	2095971.0	1535080.0	764903.0	0.311434	0.696589
     29291.36	0.12800	1978217.0	1448974.0	722318.0	0.311340	0.696146
     29291.85	0.13706	2110270.0	1545814.0	770395.0	0.311265	0.696403
     29292.35	0.13415	2068024.0	1514336.0	755168.0	0.311617	0.695792
     29292.84	0.11449	1776416.0	1301023.0	648572.0	0.311447	0.696133
     29293.33	0.12680	1964684.0	1438813.0	717224.0	0.311513	0.696186
     29293.83	0.11846	1835467.0	1343935.0	669638.0	0.311697	0.696620
     29294.32	0.13089	2022530.0	1480934.0	737919.0	0.311676	0.696594
     29294.81	0.12069	1862232.0	1363862.0	679326.0	0.311455	0.696975
     29295.31	0.14167	2181166.0	1597088.0	795291.0	0.311678	0.697229
     29295.80	0.11710	1809576.0	1324909.0	659612.0	0.311749	0.697447
     29296.29	0.12061	1861849.0	1363034.0	678311.0	0.311857	0.697862
     29296.79	0.10530	1621725.0	1187100.0	590210.0	0.311977	0.698790
     29297.28	0.11124	1717236.0	1257056.0	624765.0	0.311944	0.699152
     29297.77	0.12131	1867662.0	1367190.0	678934.0	0.311930	0.699989
     29298.27	0.11656	1800848.0	1318136.0	654411.0	0.312039	0.700238
     29298.76	0.13499	2086752.0	1526712.0	757313.0	0.312492	0.701095
     29299.26	0.13233	2039161.0	1491913.0	739892.0	0.312479	0.701310
     29299.75	0.15576	2406879.0	1761083.0	872188.0	0.312402	0.702679
     29300.24	0.088959	1371587.0	1003401.0	496636.0	0.312573	0.703293
     29300.74	0.086633	1339366.0	979594.0	484318.0	0.312813	0.704396
     29301.23	0.10844	1678897.0	1227767.0	606754.0	0.312940	0.704829
     29301.72	0.12219	1888143.0	1380845.0	681816.0	0.312898	0.705691
     29302.22	0.12646	1946982.0	1423715.0	702334.0	0.313011	0.706616
     29302.71	0.17477	2700159.0	1973669.0	973088.0	0.313416	0.707175
     29303.21	0.094880	1463904.0	1070523.0	527347.0	0.312960	0.708044
     29303.70	0.15661	2419626.0	1768914.0	870752.0	0.313247	0.708764
     29304.19	0.10411	1599822.0	1169475.0	574810.0	0.313337	0.710271
     29304.69	0.12521	1933842.0	1413486.0	694164.0	0.313450	0.711106
     29305.18	0.13446	2067362.0	1511127.0	741827.0	0.313418	0.711495
     29305.67	0.12864	1975189.0	1443968.0	708091.0	0.313269	0.712578
     29306.17	0.13003	1998512.0	1460581.0	715357.0	0.313569	0.713808
     29306.66	0.13239	2024743.0	1479723.0	724619.0	0.313588	0.713964
     29307.16	0.17635	2716248.0	1985140.0	970937.0	0.313562	0.715183
     29307.65	0.10396	1601309.0	1170365.0	572367.0	0.313506	0.715291
     29308.14	0.11120	1707789.0	1247980.0	609988.0	0.313673	0.715842
     29308.64	0.12080	1859426.0	1358240.0	663216.0	0.314078	0.716844
     29309.13	0.14706	2257783.0	1649622.0	804817.0	0.313837	0.717687
     29309.63	0.13218	2035041.0	1486521.0	725216.0	0.314077	0.717724
     29310.12	0.13717	2110251.0	1541657.0	751689.0	0.313949	0.718290
     29310.61	0.13032	2005691.0	1465221.0	714086.0	0.313983	0.718758
     29311.11	0.14096	2168290.0	1583458.0	771325.0	0.314328	0.719257
     29311.60	0.12387	1906467.0	1392412.0	678156.0	0.314214	0.719415
     29312.10	0.11704	1808741.0	1321447.0	643371.0	0.313904	0.719761
     29312.59	0.12754	1964514.0	1434946.0	698288.0	0.314118	0.720251
     29313.08	0.12569	1942981.0	1418950.0	689987.0	0.314306	0.721000
     29313.58	0.12593	1944352.0	1420138.0	690829.0	0.314175	0.720617
     29314.07	0.12840	1976933.0	1444547.0	702073.0	0.313751	0.721514
     29314.57	0.13049	1999125.0	1460087.0	710224.0	0.314214	0.720671
     29315.06	0.12328	1895710.0	1384618.0	673044.0	0.314169	0.721369
     29315.56	0.12171	1879423.0	1372794.0	667517.0	0.314117	0.721038
     29316.05	0.12472	1924535.0	1405431.0	683442.0	0.314340	0.720958
     29316.54	0.12084	1863421.0	1360970.0	661351.0	0.314216	0.721668
     29317.04	0.12254	1893011.0	1382673.0	671949.0	0.314150	0.721591
     29317.53	0.11553	1788048.0	1305810.0	634845.0	0.314301	0.721198
     29318.03	0.12818	1975544.0	1442458.0	701384.0	0.314495	0.721048
     29318.52	0.12988	1999595.0	1460914.0	710059.0	0.313882	0.721469
     29319.02	0.11796	1819480.0	1329199.0	646111.0	0.313974	0.721360
     29319.51	0.12751	1967633.0	1437086.0	698573.0	0.314214	0.721333
     29320.00	0.10624	1635481.0	1194338.0	581009.0	0.314345	0.720581
     29320.50	0.12545	1940634.0	1417059.0	689256.0	0.314431	0.720726
     29320.99	0.11839	1827663.0	1334840.0	649266.0	0.314227	0.720724
     29321.49	0.13245	2039478.0	1489921.0	724803.0	0.313971	0.720578
     29321.98	0.14308	2205238.0	1610709.0	783922.0	0.314161	0.720120
     29322.48	0.12169	1876982.0	1370853.0	667376.0	0.314232	0.719835
     29322.97	0.13594	2100106.0	1533845.0	747504.0	0.314210	0.718793
     29323.47	0.12125	1862236.0	1360218.0	663070.0	0.314133	0.718520
     29323.96	0.12922	1994556.0	1456501.0	709962.0	0.314384	0.718581
     29324.45	0.12505	1933807.0	1412637.0	688746.0	0.314032	0.718341
     29324.95	0.12140	1874659.0	1369245.0	668260.0	0.314167	0.717337
     29325.44	0.12735	1966404.0	1436292.0	701187.0	0.314142	0.717045
     29325.94	0.11987	1851918.0	1353001.0	660763.0	0.313897	0.716685
     29326.43	0.13432	2070728.0	1512480.0	739170.0	0.314150	0.715978
     29326.93	0.11578	1787093.0	1305468.0	638429.0	0.314029	0.715306
     29327.42	0.14003	2154077.0	1574010.0	770031.0	0.313736	0.714951
     29327.92	0.10982	1694014.0	1237793.0	605612.0	0.313771	0.714846
     29328.41	0.13601	2100814.0	1535169.0	751812.0	0.313684	0.713909
     29328.91	0.13259	2044827.0	1494221.0	732082.0	0.313708	0.713468
     29329.40	0.12992	2004984.0	1464961.0	718214.0	0.313807	0.712816
     29329.89	0.13633	2100020.0	1534512.0	752557.0	0.313734	0.712491
     29330.39	0.13488	2074303.0	1515659.0	743616.0	0.313775	0.712081
     29330.88	0.13022	2006833.0	1466432.0	719870.0	0.313726	0.711517
     29331.38	0.11826	1825475.0	1333821.0	655377.0	0.313792	0.710592
     29331.87	0.11272	1739527.0	1271698.0	624830.0	0.313260	0.710629
     29332.37	0.12096	1866048.0	1364099.0	670691.0	0.313329	0.709941
     29332.86	0.12280	1893138.0	1383747.0	680724.0	0.313441	0.709393
     29333.36	0.12818	1977702.0	1445591.0	711113.0	0.313417	0.709442
     29333.85	0.12824	1977438.0	1445935.0	711597.0	0.313046	0.709000
     29334.35	0.12837	1979697.0	1447261.0	712636.0	0.313271	0.708457
     29334.84	0.11599	1786140.0	1305874.0	643411.0	0.313184	0.707844
     29335.34	0.12453	1919480.0	1403390.0	691697.0	0.313164	0.707498
     29335.83	0.11836	1824354.0	1334018.0	657782.0	0.313031	0.707077
     29336.33	0.11518	1775613.0	1298754.0	640480.0	0.312740	0.706943
     29336.82	0.11477	1767299.0	1292399.0	637736.0	0.312952	0.706331
     29337.32	0.11308	1740810.0	1273216.0	628131.0	0.312805	0.706553
     29337.81	0.11528	1776869.0	1299667.0	641442.0	0.312745	0.706145
     29338.31	0.12106	1842108.0	1347148.0	665281.0	0.312921	0.705536
     29338.80	0.12988	1984831.0	1452004.0	716997.0	0.312589	0.705628
     29339.30	0.11836	1809069.0	1323494.0	653771.0	0.312537	0.705273
     29339.79	0.10572	1621340.0	1186096.0	586187.0	0.312586	0.704784
     29340.29	0.12191	1868886.0	1367263.0	676057.0	0.312532	0.704289
     29340.78	0.12510	1917051.0	1402660.0	693704.0	0.312418	0.704080
     29341.28	0.13261	2038329.0	1491509.0	737863.0	0.312342	0.703785
     29341.77	0.13069	2012700.0	1472827.0	728333.0	0.312293	0.704181
     29342.27	0.15622	2403438.0	1758831.0	870146.0	0.312251	0.703744
     29342.76	0.13803	2123880.0	1554152.0	769154.0	0.312315	0.703394
     29343.26	0.12109	1858937.0	1360327.0	673293.0	0.312280	0.703300
     29343.75	0.090333	1388206.0	1016262.0	503016.0	0.311881	0.703264
     29344.25	0.13526	2081490.0	1523686.0	754446.0	0.311952	0.702904
     29344.74	0.13472	2076345.0	1519862.0	752346.0	0.311990	0.703178
     29345.24	0.13503	2078925.0	1521921.0	753512.0	0.311878	0.702984
     29345.73	0.12488	1921609.0	1406604.0	696552.0	0.311985	0.702791
     29346.23	0.13143	2022779.0	1480822.0	733218.0	0.311875	0.702910
     29346.72	0.15427	2371817.0	1736935.0	859835.0	0.311534	0.703137
     29347.22	0.10638	1633095.0	1195731.0	592097.0	0.311719	0.702843
     29347.72	0.12750	1955443.0	1431742.0	709203.0	0.311725	0.702505
     29348.21	0.13431	2067483.0	1514223.0	749252.0	0.311429	0.703582
     29348.71	0.13660	2104338.0	1541431.0	763124.0	0.311290	0.703046
     29349.20	0.12986	1998248.0	1463611.0	724929.0	0.311364	0.702588
     29349.70	0.14132	2170478.0	1589961.0	787305.0	0.311238	0.702849
     29350.19	0.13061	2007277.0	1470701.0	728025.0	0.311040	0.703159
     29350.69	0.14133	2173886.0	1592987.0	788458.0	0.310905	0.703287
     29351.18	0.11260	1733122.0	1270141.0	628331.0	0.310796	0.703816
     29351.68	0.12874	1979722.0	1451091.0	718182.0	0.310641	0.703348
     29352.17	0.12745	1957569.0	1434704.0	709837.0	0.310745	0.703678
     29352.67	0.11621	1787681.0	1310312.0	647785.0	0.310654	0.704462
     29353.16	0.12824	1968799.0	1442976.0	713835.0	0.310716	0.703811
     29353.66	0.13022	1999267.0	1465485.0	724414.0	0.310594	0.704578
     29354.16	0.12948	1987452.0	1457096.0	720287.0	0.310408	0.704551
     29354.65	0.13311	2041873.0	1496632.0	739702.0	0.310650	0.704725
     29355.15	0.11747	1803520.0	1322092.0	653174.0	0.310525	0.705127
     29355.64	0.11288	1730741.0	1269194.0	626993.0	0.310168	0.705202
     29356.14	0.13319	2038888.0	1495184.0	738358.0	0.310155	0.705576
     29356.63	0.12546	1927252.0	1412895.0	697750.0	0.310454	0.705535
     29357.13	0.12423	1908068.0	1399269.0	690836.0	0.310141	0.705803
     29357.63	0.12271	1881389.0	1380332.0	681337.0	0.309686	0.706022
     29358.12	0.12950	1989123.0	1458896.0	719888.0	0.310014	0.706340
     29358.62	0.11694	1796077.0	1317607.0	650079.0	0.309788	0.706479
     29359.11	0.12141	1862363.0	1366522.0	673927.0	0.309577	0.706902
     29359.61	0.11740	1803449.0	1323424.0	652531.0	0.309479	0.707119
     29360.10	0.11824	1811232.0	1329025.0	655232.0	0.309562	0.707211
     29360.60	0.12336	1894520.0	1390316.0	685083.0	0.309434	0.707746
     29361.09	0.13117	2014724.0	1478975.0	728851.0	0.309133	0.707635
     29361.59	0.12323	1892836.0	1389476.0	684194.0	0.309150	0.708440
     29362.09	0.12796	1961367.0	1439678.0	709020.0	0.309222	0.708291
     29362.58	0.13628	2094029.0	1537275.0	757003.0	0.309079	0.708399
     29363.08	0.12479	1917396.0	1408127.0	693348.0	0.308708	0.708484
     29363.57	0.12891	1976058.0	1450686.0	714335.0	0.309067	0.708440
     29364.07	0.12282	1871494.0	1374230.0	676584.0	0.308843	0.708592
     29364.57	0.12301	1876374.0	1377804.0	678214.0	0.308850	0.708783
     29365.06	0.11956	1826213.0	1341259.0	659896.0	0.308636	0.709282
     29365.56	0.13125	2008710.0	1475577.0	726030.0	0.308444	0.709213
     29366.05	0.12412	1896951.0	1393792.0	685950.0	0.308220	0.708979
     29366.55	0.13284	2029565.0	1490740.0	733729.0	0.308549	0.708888
     29367.05	0.11683	1792487.0	1316952.0	648123.0	0.308284	0.708995
     29367.54	0.12041	1827786.0	1342949.0	661101.0	0.308237	0.708717
     29368.04	0.12919	1966300.0	1444861.0	711030.0	0.308140	0.709054
     29368.53	0.13694	2088295.0	1534230.0	754877.0	0.308319	0.709229
     29369.03	0.13209	2016884.0	1482007.0	729154.0	0.308156	0.709268
     29369.53	0.12415	1897023.0	1394057.0	686229.0	0.308068	0.708762
     29370.02	0.12917	1975514.0	1451904.0	714842.0	0.307953	0.708570
     29370.52	0.12185	1838353.0	1351008.0	665400.0	0.308019	0.708218
     29371.01	0.14102	2126164.0	1562725.0	769494.0	0.307888	0.708453
     29371.51	0.12833	1936540.0	1423344.0	700995.0	0.307894	0.708264
     29372.01	0.12251	1861769.0	1368159.0	673985.0	0.308061	0.708013
     29372.50	0.12765	1944300.0	1429029.0	704169.0	0.307907	0.707732
     29373.00	0.12042	1838872.0	1351671.0	666039.0	0.307811	0.707749
     29373.49	0.12707	1935271.0	1422825.0	701468.0	0.307603	0.707224
     29373.99	0.12890	1921512.0	1412672.0	696146.0	0.307629	0.707679
     29374.49	0.12373	1865602.0	1371476.0	676464.0	0.307696	0.706764
     29374.98	0.11940	1812910.0	1332866.0	657492.0	0.307602	0.706654
     29375.48	0.12525	1908229.0	1403050.0	692191.0	0.307527	0.706542
     29375.98	0.12482	1907435.0	1402530.0	692294.0	0.307482	0.706022
     29376.47	0.11567	1768347.0	1300094.0	642098.0	0.307609	0.705451
     29376.97	0.12012	1834260.0	1348636.0	666181.0	0.307547	0.705288
     29377.46	0.11746	1791141.0	1316891.0	650919.0	0.307579	0.704644
     29377.96	0.11190	1707174.0	1255379.0	620516.0	0.307402	0.704641
     29378.46	0.12777	1939793.0	1426052.0	705341.0	0.307671	0.703984
     29378.95	0.13311	2021521.0	1487073.0	735396.0	0.307040	0.704156
     29379.45	0.084891	1295250.0	952546.0	471561.0	0.307321	0.703090
     29379.95	0.11651	1780013.0	1308540.0	647755.0	0.307709	0.703155
     29380.44	0.12344	1888716.0	1388649.0	688132.0	0.307566	0.702106
     29380.94	0.13070	2000601.0	1471046.0	729093.0	0.307474	0.701928
     29381.44	0.11485	1756299.0	1291279.0	640208.0	0.307576	0.701595
     29381.93	0.13084	1996610.0	1467958.0	728558.0	0.307578	0.700560
     29382.43	0.13545	2070374.0	1522066.0	755745.0	0.307661	0.700120
     29382.93	0.15190	2319316.0	1705452.0	846772.0	0.307442	0.700154
     29383.42	0.11508	1761168.0	1294878.0	643350.0	0.307561	0.699483
     29383.92	0.10355	1581154.0	1162671.0	578305.0	0.307435	0.698374
     29384.41	0.13861	2115871.0	1555687.0	773694.0	0.307549	0.698496
     29384.91	0.12517	1912344.0	1405987.0	699846.0	0.307590	0.697635
     29385.41	0.12557	1920993.0	1412534.0	703144.0	0.307457	0.697579
     29385.90	0.14577	2227645.0	1638133.0	816078.0	0.307388	0.696803
     29386.40	0.13134	2006893.0	1476236.0	735608.0	0.307092	0.696554
     29386.90	0.12288	1879817.0	1382237.0	688932.0	0.307471	0.696316
     29387.39	0.13119	2003938.0	1473231.0	735003.0	0.307656	0.695339
     29387.89	0.12840	1958067.0	1440108.0	718645.0	0.307240	0.695106
     29388.39	0.13282	2021984.0	1486913.0	742293.0	0.307377	0.694713
     29388.88	0.13035	1976704.0	1453694.0	726452.0	0.307323	0.693691
     29389.38	0.14261	2176093.0	1600218.0	799934.0	0.307391	0.693366
     29389.88	0.12819	1945777.0	1430757.0	715393.0	0.307458	0.693127
     29390.37	0.13168	1999217.0	1470281.0	735477.0	0.307302	0.692690
     29390.87	0.14220	2161600.0	1589703.0	795566.0	0.307301	0.692249
     29391.37	0.13495	2049944.0	1507474.0	754989.0	0.307377	0.691488
     29391.87	0.10837	1650632.0	1214018.0	608018.0	0.307223	0.691486
     29392.36	0.12719	1941987.0	1428208.0	715799.0	0.307291	0.690776
     29392.86	0.13064	1985349.0	1460168.0	732082.0	0.307243	0.690414
     29393.36	0.13282	2021227.0	1486676.0	745707.0	0.307162	0.689965
     29393.85	0.12177	1849530.0	1360370.0	682531.0	0.307175	0.689704
     29394.35	0.12887	1955811.0	1438790.0	722214.0	0.307002	0.689236
     29394.85	0.12014	1828838.0	1345617.0	675570.0	0.306828	0.689051
     29395.34	0.13842	2106448.0	1549204.0	778162.0	0.307262	0.688562
     29395.84	0.10941	1664451.0	1224680.0	615355.0	0.306816	0.688236
     29396.34	0.12838	1944949.0	1430608.0	718955.0	0.307136	0.688056
     29396.83	0.12528	1905280.0	1401458.0	704611.0	0.307116	0.687623
     29397.33	0.12260	1860197.0	1368627.0	688085.0	0.306874	0.687651
     29397.83	0.12723	1935025.0	1423978.0	716059.0	0.306666	0.687447
     29398.33	0.12196	1852002.0	1362535.0	685469.0	0.306920	0.686999
     29398.82	0.12600	1902376.0	1399881.0	704386.0	0.306716	0.686816
     29399.32	0.12084	1838009.0	1352538.0	680703.0	0.306700	0.686612
     29399.82	0.11307	1722552.0	1267187.0	637743.0	0.307007	0.686619
     29400.31	0.13014	1978360.0	1455938.0	733161.0	0.306618	0.686040
     29400.81	0.11368	1724737.0	1269276.0	639146.0	0.306628	0.686069
     29401.31	0.12339	1872671.0	1378154.0	694205.0	0.306621	0.685733
     29401.80	0.12438	1890153.0	1390930.0	700820.0	0.306685	0.685477
     29402.30	0.13019	1954145.0	1438629.0	724944.0	0.306262	0.685351
     29402.80	0.12644	1905985.0	1403073.0	707374.0	0.306334	0.684861
     29403.30	0.12047	1829148.0	1346437.0	678570.0	0.306388	0.685229
     29403.79	0.12999	1970657.0	1450655.0	731213.0	0.306352	0.685066
     29404.29	0.13143	2002397.0	1473993.0	743090.0	0.306370	0.684913
     29404.79	0.12253	1865175.0	1372976.0	692317.0	0.306374	0.684692
     29405.29	0.13108	1992241.0	1466460.0	739132.0	0.306409	0.685130
     29405.78	0.12430	1891697.0	1392516.0	701633.0	0.306362	0.685457
     29406.28	0.13280	2015600.0	1483751.0	748467.0	0.306344	0.684302
     29406.78	0.12133	1837812.0	1353249.0	682182.0	0.306067	0.684967
     29407.27	0.12106	1835816.0	1351711.0	681571.0	0.306118	0.684726
     29407.77	0.12405	1882188.0	1385962.0	698861.0	0.306040	0.684698
     29408.27	0.12135	1840259.0	1354724.0	682814.0	0.306309	0.685131
     29408.77	0.13052	1978484.0	1456734.0	734242.0	0.306134	0.685114
     29409.26	0.12080	1826928.0	1345513.0	678299.0	0.305861	0.684942
     29409.76	0.14135	2110525.0	1554467.0	783331.0	0.305804	0.685333
     29410.26	0.12754	1914015.0	1409306.0	710490.0	0.306106	0.684898
     29410.76	0.13289	2009287.0	1479654.0	745676.0	0.305972	0.685272
     29411.25	0.12908	1957476.0	1441689.0	726703.0	0.305841	0.685053
     29411.75	0.12557	1908360.0	1406086.0	708675.0	0.305434	0.685168
     29412.25	0.13070	1974187.0	1454382.0	733075.0	0.305576	0.685088
     29412.75	0.12393	1875099.0	1381282.0	695947.0	0.305649	0.685494
     29413.24	0.12483	1882979.0	1387207.0	698927.0	0.305563	0.685501
     29413.74	0.12305	1855671.0	1366486.0	688155.0	0.306004	0.685984
     29414.24	0.12635	1908885.0	1406162.0	708551.0	0.305655	0.685397
     29414.74	0.13396	2028402.0	1494411.0	752757.0	0.305516	0.685745
     29415.23	0.13522	2031967.0	1497469.0	753778.0	0.305228	0.686434
     29415.73	0.12214	1844894.0	1359640.0	684594.0	0.305202	0.686149
     29416.23	0.11275	1705275.0	1256742.0	632859.0	0.305204	0.686030
     29416.73	0.12100	1831757.0	1350073.0	679654.0	0.305117	0.686330
     29417.22	0.12625	1891922.0	1394208.0	701661.0	0.305267	0.686631
     29417.72	0.11627	1759156.0	1296663.0	652536.0	0.305040	0.686683
     29418.22	0.12070	1805888.0	1331162.0	670181.0	0.305000	0.686260
     29418.72	0.11882	1789084.0	1318918.0	663782.0	0.304892	0.686613
     29419.22	0.11315	1705902.0	1257419.0	632525.0	0.305033	0.687097
     29419.71	0.12116	1820527.0	1341975.0	675005.0	0.304984	0.687178
     29420.21	0.10085	1515931.0	1117456.0	562090.0	0.304975	0.687148
     29420.71	0.11741	1775929.0	1309315.0	658561.0	0.304820	0.687202
     29421.21	0.12554	1905051.0	1404601.0	706767.0	0.304756	0.686808
     29421.70	0.12453	1880519.0	1386419.0	696931.0	0.304824	0.687793
     29422.20	0.12361	1866860.0	1376306.0	692051.0	0.304855	0.687499
     29422.70	0.12218	1837830.0	1355447.0	681457.0	0.304454	0.687653
     29423.20	0.13222	1987818.0	1466169.0	737195.0	0.304385	0.687556
     29423.70	0.14266	2129551.0	1570421.0	789512.0	0.304567	0.687684
     29424.19	0.12303	1850025.0	1364452.0	686091.0	0.304446	0.687498
     29424.69	0.11107	1662981.0	1226432.0	616363.0	0.304503	0.688028
     29425.19	0.14425	2181110.0	1608425.0	808177.0	0.304578	0.688230
     29425.69	0.12554	1867563.0	1377392.0	692604.0	0.304443	0.687489
     29426.19	0.14060	2112390.0	1558214.0	783110.0	0.304280	0.688022
     29426.68	0.12174	1829704.0	1349626.0	678351.0	0.304327	0.687918
     29427.18	0.12464	1877426.0	1384827.0	696283.0	0.304326	0.687574
     29427.68	0.13718	2056223.0	1516817.0	762509.0	0.304257	0.687755
     29428.18	0.12907	1948705.0	1437313.0	722587.0	0.304390	0.687693
     29428.68	0.11683	1748544.0	1289974.0	648649.0	0.304161	0.687486
     29429.17	0.13508	2035910.0	1502193.0	755115.0	0.304017	0.687811
     29429.67	0.12953	1956358.0	1443408.0	725781.0	0.304078	0.687514
     29430.17	0.13609	2062108.0	1521229.0	765192.0	0.304210	0.687147
     29430.67	0.13725	2077927.0	1533157.0	771192.0	0.304042	0.687147
     29431.17	0.13164	1983767.0	1463355.0	735989.0	0.304266	0.687272
     29431.66	0.13180	1985284.0	1464718.0	736606.0	0.304099	0.687365
     29432.16	0.13130	1987834.0	1466654.0	737411.0	0.304062	0.687593
     29432.66	0.13253	2002473.0	1477339.0	743458.0	0.304140	0.686686
     29433.16	0.12114	1811076.0	1336302.0	672582.0	0.304015	0.686537
     29433.66	0.13032	1958371.0	1445004.0	727578.0	0.304001	0.686146
     29434.16	0.12261	1853276.0	1367701.0	688297.0	0.303824	0.686666
     29434.65	0.13549	2045679.0	1509505.0	759867.0	0.303948	0.686394
     29435.15	0.11992	1808747.0	1334719.0	672287.0	0.303914	0.685791
     29435.65	0.12028	1792534.0	1323079.0	666383.0	0.303669	0.685852
     29436.15	0.12561	1894222.0	1397781.0	704153.0	0.303922	0.685646
     29436.65	0.12794	1929401.0	1424151.0	717712.0	0.303634	0.685263
     29437.15	0.12594	1887271.0	1392894.0	702062.0	0.303748	0.685117
     29437.64	0.12412	1874176.0	1383346.0	697526.0	0.303664	0.684721
     29438.14	0.12704	1918802.0	1416012.0	713978.0	0.303857	0.684748
     29438.64	0.11599	1749273.0	1291124.0	651177.0	0.303687	0.684487
     29439.14	0.11382	1709179.0	1261641.0	636575.0	0.303600	0.684066
     29439.64	0.11725	1759900.0	1299297.0	655776.0	0.303434	0.683759
     29440.14	0.13005	1951955.0	1440659.0	727619.0	0.303731	0.683078
     29440.63	0.11722	1764638.0	1302482.0	657843.0	0.303674	0.683061
     29441.13	0.12347	1862798.0	1375107.0	694529.0	0.303548	0.683053
     29441.63	0.11934	1803890.0	1332003.0	673153.0	0.303262	0.682466
     29442.13	0.12932	1952127.0	1440772.0	728411.0	0.303740	0.682069
     29442.63	0.12673	1912624.0	1412270.0	714103.0	0.303278	0.681926
     29443.13	0.13279	1995593.0	1473537.0	745221.0	0.303276	0.681740
     29443.63	0.11326	1709321.0	1261847.0	638651.0	0.303520	0.680974
     29444.12	0.13396	2020919.0	1492227.0	755235.0	0.303283	0.680996
     29444.62	0.13041	1961351.0	1448201.0	733113.0	0.303311	0.680778
     29445.12	0.12165	1826654.0	1348351.0	683335.0	0.303604	0.679652
     29445.62	0.13033	1964576.0	1450356.0	734983.0	0.303467	0.679717
     29446.12	0.13334	2002348.0	1478416.0	749732.0	0.303349	0.679011
     29446.62	0.10804	1618982.0	1195744.0	606504.0	0.303029	0.678813
     29447.12	0.13813	2073320.0	1530833.0	776680.0	0.303339	0.678539
     29447.62	0.10758	1616254.0	1193120.0	605568.0	0.303539	0.678160
     29448.11	0.12448	1871876.0	1382279.0	701591.0	0.303208	0.678138
     29448.61	0.13241	1995583.0	1473751.0	748589.0	0.303125	0.677376
     29449.11	0.12411	1861739.0	1375189.0	698872.0	0.302920	0.676879
     29449.61	0.13373	2004910.0	1480375.0	752768.0	0.303304	0.676294
     29450.11	0.12197	1833979.0	1354667.0	689107.0	0.302932	0.675914
     29450.61	0.13350	2009094.0	1483460.0	754641.0	0.303307	0.675890
     29451.11	0.14003	2106556.0	1555749.0	791952.0	0.303097	0.675212
     29451.61	0.12009	1804818.0	1333511.0	678967.0	0.302644	0.674998
     29452.10	0.13076	1967748.0	1453307.0	740457.0	0.303048	0.674329
     29452.60	0.12919	1947848.0	1438726.0	733243.0	0.302967	0.674036
     29453.10	0.13184	1980685.0	1463130.0	745742.0	0.302865	0.673954
     29453.60	0.12375	1853707.0	1369418.0	698117.0	0.302802	0.673754
     29454.10	0.12764	1920867.0	1418926.0	724183.0	0.302876	0.672611
     29454.60	0.12521	1885207.0	1392330.0	710724.0	0.303059	0.672450
     29455.10	0.13101	1951947.0	1441978.0	736117.0	0.302812	0.672382
     29455.60	0.11767	1768343.0	1306670.0	667230.0	0.302561	0.672102
     29456.10	0.11808	1779358.0	1314652.0	671789.0	0.302681	0.671383
     29456.59	0.11954	1804433.0	1333336.0	681432.0	0.302562	0.671243
     29457.09	0.11586	1739558.0	1285270.0	657285.0	0.302662	0.670606
     29457.59	0.12715	1910839.0	1412248.0	722587.0	0.302360	0.670100
     29458.09	0.11891	1791016.0	1323532.0	677345.0	0.302479	0.669878
     29458.59	0.12289	1851564.0	1368253.0	700561.0	0.302496	0.669409
     29459.09	0.11478	1721270.0	1271897.0	651295.0	0.302553	0.669302
     29459.59	0.10122	1520340.0	1123407.0	575612.0	0.302568	0.668687
     29460.09	0.12271	1844270.0	1363055.0	698622.0	0.302355	0.668374
     29460.59	0.11530	1723859.0	1274258.0	653574.0	0.302201	0.667664
     29461.09	0.11487	1714391.0	1267563.0	650066.0	0.301962	0.667778
     29461.59	0.12789	1925047.0	1422821.0	729709.0	0.302309	0.667751
     29462.09	0.12579	1894100.0	1400633.0	718363.0	0.301820	0.667705
     29462.58	0.12522	1879383.0	1389599.0	713370.0	0.301928	0.666770
     29463.08	0.14361	2154843.0	1593217.0	818374.0	0.301963	0.666191
     29463.58	0.12692	1903106.0	1407112.0	722968.0	0.301948	0.665930
     29464.08	0.11906	1777188.0	1313936.0	675350.0	0.302005	0.665551
     29464.58	0.12814	1914879.0	1415982.0	727999.0	0.301831	0.665279
     29465.08	0.12889	1928609.0	1426328.0	733186.0	0.301696	0.665459
     29465.58	0.13194	1977607.0	1462647.0	752332.0	0.301640	0.664825
     29466.08	0.14027	2102257.0	1555243.0	799894.0	0.301380	0.664908
     29466.58	0.12916	1939812.0	1434827.0	738227.0	0.301547	0.664548
     29467.08	0.16805	2509218.0	1856198.0	955606.0	0.301441	0.663940
     29467.58	0.10527	1577674.0	1167173.0	601047.0	0.301367	0.663667
     29468.08	0.10450	1571909.0	1162833.0	598946.0	0.301432	0.663443
     29468.58	0.13265	1983138.0	1467618.0	756190.0	0.301040	0.663103
     29469.08	0.13142	1967083.0	1455969.0	749898.0	0.300880	0.663490
     29469.58	0.14145	2105732.0	1558226.0	803208.0	0.301115	0.662690
     29470.07	0.14355	2154074.0	1594178.0	821666.0	0.301003	0.662780
     29470.57	0.13492	2026867.0	1499851.0	773419.0	0.301125	0.662300
     29471.07	0.13320	1997838.0	1478855.0	762350.0	0.300797	0.662618
     29471.57	0.11523	1730638.0	1281152.0	660603.0	0.300730	0.662362
     29472.07	0.13461	2021924.0	1496931.0	772141.0	0.300633	0.662005
     29472.57	0.12572	1894765.0	1402674.0	723433.0	0.300714	0.662128
     29473.07	0.12589	1893615.0	1402392.0	723535.0	0.300308	0.661786
     29473.57	0.12656	1893024.0	1401853.0	723648.0	0.300381	0.661245
     29474.07	0.12216	1833714.0	1357790.0	701061.0	0.300485	0.661019
     29474.57	0.14821	2229591.0	1650924.0	852155.0	0.300483	0.661322
     29475.07	0.11475	1721433.0	1274885.0	658316.0	0.300301	0.660926
     29475.57	0.11628	1750812.0	1296438.0	669303.0	0.300459	0.661139
     29476.07	0.12326	1847752.0	1368476.0	706703.0	0.300272	0.660842
     29476.57	0.12497	1877011.0	1389981.0	717651.0	0.300391	0.661062
     29477.07	0.12389	1860775.0	1378460.0	711928.0	0.300026	0.660745
     29477.57	0.12488	1868732.0	1383799.0	714834.0	0.300428	0.660538
     29478.07	0.12817	1918621.0	1421598.0	734299.0	0.299825	0.660621
     29478.57	0.12369	1857055.0	1375650.0	710513.0	0.300066	0.660694
     29479.07	0.11549	1733581.0	1284348.0	663182.0	0.299938	0.660957
     29479.57	0.11088	1667167.0	1235038.0	638143.0	0.300024	0.660295
     29480.07	0.12565	1887612.0	1398358.0	722311.0	0.300014	0.660598
     29480.57	0.12330	1847394.0	1368890.0	707245.0	0.299776	0.660378
     29481.07	0.12235	1840729.0	1364179.0	704666.0	0.299609	0.660584
     29481.57	0.11913	1793000.0	1328410.0	686295.0	0.299907	0.660430
     29482.07	0.12590	1893416.0	1403329.0	724670.0	0.299535	0.660886
     29482.57	0.14435	2172775.0	1610131.0	831870.0	0.299690	0.660395
     29483.07	0.12823	1926086.0	1427254.0	737110.0	0.299738	0.660770
     29483.57	0.12051	1803998.0	1337205.0	690805.0	0.299424	0.660479
     29484.07	0.12758	1918802.0	1422533.0	734727.0	0.299262	0.660695
     29484.57	0.12776	1922980.0	1425352.0	736405.0	0.299457	0.660394
     29485.07	0.12524	1882218.0	1395062.0	720785.0	0.299512	0.660353
     29485.57	0.11676	1756382.0	1302021.0	672817.0	0.299338	0.660200
     29486.07	0.13016	1953413.0	1448267.0	748120.0	0.299210	0.660560
     29486.57	0.14307	2150928.0	1594541.0	823635.0	0.299313	0.660614
     29487.07	0.11977	1799513.0	1334139.0	689157.0	0.299230	0.660572
     29487.57	0.11441	1720708.0	1275904.0	658985.0	0.299081	0.660709
     29488.07	0.12072	1815052.0	1345852.0	695197.0	0.299087	0.660587
     29488.57	0.13601	2046438.0	1517073.0	783818.0	0.299318	0.660361
     29489.07	0.12761	1913044.0	1418421.0	732401.0	0.299151	0.660971
     29489.57	0.13222	1989288.0	1475118.0	761584.0	0.299039	0.661093
     29490.07	0.15654	2352791.0	1744886.0	901068.0	0.298913	0.660864
     29490.57	0.12952	1944668.0	1442026.0	744492.0	0.299042	0.661102
     29491.07	0.10082	1514430.0	1122942.0	579714.0	0.299087	0.661172
     29491.57	0.10820	1625522.0	1205919.0	622691.0	0.298587	0.660947
     29492.07	0.13183	1980409.0	1468618.0	758276.0	0.298982	0.661030
     29492.57	0.12740	1908601.0	1415728.0	730788.0	0.298727	0.661276
     29493.07	0.13134	1973992.0	1463833.0	755832.0	0.299000	0.660994
     29493.57	0.13102	1967019.0	1458986.0	753236.0	0.298778	0.661118
     29494.07	0.12334	1852204.0	1373894.0	709151.0	0.298727	0.661336
     29494.57	0.11910	1791134.0	1328764.0	685945.0	0.298600	0.661207
     29495.07	0.11777	1770407.0	1313508.0	678533.0	0.298508	0.660524
     29495.57	0.10959	1644739.0	1220567.0	630243.0	0.298266	0.660965
     29496.07	0.13113	1967074.0	1459847.0	753854.0	0.298216	0.660888
     29496.57	0.10997	1648727.0	1223199.0	631493.0	0.298534	0.661138
     29497.07	0.12721	1910391.0	1417773.0	732057.0	0.298221	0.660984
     29497.57	0.13288	1989257.0	1476099.0	762539.0	0.298358	0.660504
     29498.07	0.11780	1763500.0	1308840.0	675987.0	0.298159	0.660723
     29498.57	0.11074	1661095.0	1232770.0	636579.0	0.298213	0.660910
     29499.07	0.096104	1441693.0	1070074.0	552556.0	0.298090	0.660928
     29499.57	0.11797	1768412.0	1312800.0	677843.0	0.297920	0.661002
     29500.07	0.11978	1796920.0	1334059.0	688748.0	0.297848	0.661106
     29500.58	0.12142	1819396.0	1350472.0	697444.0	0.298050	0.660787
     29501.08	0.12887	1927780.0	1431003.0	739072.0	0.297993	0.660736
     29501.58	0.12661	1891918.0	1404516.0	725329.0	0.297898	0.660823
     29502.08	0.11646	1747724.0	1297534.0	670325.0	0.297849	0.660458
     29502.58	0.13225	1982834.0	1472236.0	760449.0	0.297745	0.660629
     29503.08	0.12845	1925788.0	1429852.0	738461.0	0.297764	0.660758
     29503.58	0.13282	1989822.0	1477713.0	763214.0	0.297550	0.660712
     29504.08	0.13551	2030832.0	1507857.0	778914.0	0.297756	0.660544
     29504.58	0.13292	1993909.0	1480602.0	764761.0	0.297648	0.660641
     29505.08	0.13219	1980216.0	1470771.0	760048.0	0.297419	0.660160
     29505.58	0.14846	2222416.0	1650701.0	852972.0	0.297395	0.660229
     29506.08	0.14298	2143012.0	1592015.0	822637.0	0.297212	0.660241
     29506.58	0.093872	1407796.0	1045726.0	540254.0	0.297314	0.660427
     29507.08	0.12993	1947615.0	1446561.0	748029.0	0.297417	0.659503
     29507.58	0.12341	1847875.0	1372481.0	709352.0	0.297416	0.660023
     29508.09	0.13288	1990934.0	1478951.0	764497.0	0.297271	0.659870
     29508.59	0.16463	2461380.0	1828883.0	945642.0	0.297017	0.659597
     29509.09	0.15391	2300697.0	1709247.0	883768.0	0.297159	0.659614
     29509.59	0.19662	2943741.0	2187037.0	1131602.0	0.297134	0.658913
     29510.09	0.085797	1284551.0	954358.0	493747.0	0.297126	0.659016
     29510.59	0.068827	1031108.0	766225.0	396368.0	0.296913	0.659133
     29511.09	0.13171	1972836.0	1465738.0	758442.0	0.297113	0.658848
     29511.59	0.12546	1876705.0	1394953.0	722062.0	0.296657	0.658505
     29512.09	0.12969	1937862.0	1440390.0	745523.0	0.296671	0.658583
     29512.59	0.12463	1865628.0	1386750.0	718140.0	0.296635	0.658054
     29513.09	0.12528	1876828.0	1394844.0	722371.0	0.296801	0.657999
     29513.60	0.12910	1931392.0	1435549.0	743702.0	0.296694	0.657662
     29514.10	0.12445	1863167.0	1384852.0	717081.0	0.296684	0.658160
     29514.60	0.12114	1814554.0	1348282.0	698820.0	0.297009	0.657193
     29515.10	0.12993	1944592.0	1445266.0	749321.0	0.296759	0.656881
     29515.60	0.12363	1851005.0	1375935.0	713372.0	0.296595	0.656886
     29516.10	0.12836	1917783.0	1425426.0	739285.0	0.296699	0.656542
     29516.60	0.12686	1896356.0	1409799.0	731094.0	0.296487	0.656660
     29517.10	0.11571	1730400.0	1286514.0	667151.0	0.296416	0.656675
     29517.60	0.12630	1888103.0	1403435.0	727926.0	0.296650	0.656479
     29518.10	0.11533	1714169.0	1274025.0	660960.0	0.296747	0.656243
     29518.61	0.11195	1669088.0	1240911.0	643871.0	0.296432	0.656103
     29519.11	0.13447	2006757.0	1491879.0	774611.0	0.296484	0.655431
     29519.61	0.11412	1708061.0	1270038.0	659623.0	0.296312	0.655134
     29520.11	0.12603	1880455.0	1397794.0	726338.0	0.296618	0.654635
     29520.61	0.13401	2002318.0	1488331.0	773313.0	0.296650	0.654727
     29521.11	0.12459	1858152.0	1381187.0	717655.0	0.296639	0.654710
     29521.61	0.12472	1859565.0	1383005.0	718689.0	0.296084	0.654585
     29522.11	0.12457	1858290.0	1381739.0	718661.0	0.296314	0.653708
     29522.62	0.12883	1924037.0	1430633.0	743903.0	0.296309	0.653962
     29523.12	0.13369	1995203.0	1483663.0	772001.0	0.296232	0.653283
     29523.62	0.13555	2026163.0	1506641.0	784037.0	0.296261	0.653182
     29524.12	0.12902	1929151.0	1434377.0	746891.0	0.296349	0.652567
     29524.62	0.10665	1594908.0	1186179.0	617658.0	0.296079	0.652558
     29525.12	0.12717	1898286.0	1411694.0	735075.0	0.296161	0.652573
     29525.62	0.11561	1724154.0	1282185.0	668334.0	0.296171	0.651533
     29526.12	0.12922	1929480.0	1434760.0	747723.0	0.296253	0.651720
     29526.63	0.12817	1914230.0	1423746.0	741996.0	0.296024	0.651703
     29527.13	0.12713	1901000.0	1414130.0	737572.0	0.295866	0.650906
     29527.63	0.12086	1804984.0	1342614.0	700309.0	0.295933	0.650852
     29528.13	0.13770	2052516.0	1526948.0	796871.0	0.295795	0.650333
     29528.63	0.13103	1953892.0	1453016.0	758582.0	0.296182	0.649946
     29529.13	0.12946	1928049.0	1434222.0	748864.0	0.295886	0.649820
     29529.64	0.12451	1858560.0	1382572.0	721876.0	0.295856	0.649847
     29530.14	0.12854	1920046.0	1428170.0	746276.0	0.295955	0.649054
     29530.64	0.12461	1859012.0	1383116.0	722760.0	0.295706	0.649017
     29531.14	0.12451	1860968.0	1384510.0	723765.0	0.295750	0.648635
     29531.64	0.12267	1831171.0	1362089.0	712092.0	0.295936	0.648568
     29532.14	0.13886	2072876.0	1541967.0	806672.0	0.295878	0.647897
     29532.64	0.12749	1902113.0	1415000.0	740205.0	0.295836	0.647958
     29533.15	0.11846	1762756.0	1311517.0	686518.0	0.295694	0.647307
     29533.65	0.12787	1905203.0	1417681.0	742275.0	0.295566	0.647058
     29534.15	0.12426	1855567.0	1380503.0	722882.0	0.295742	0.646957
     29534.65	0.11803	1759163.0	1308872.0	685667.0	0.295672	0.646529
     29535.15	0.11375	1697407.0	1263108.0	661584.0	0.295526	0.646694
     29535.65	0.11808	1758909.0	1308833.0	686079.0	0.295558	0.645898
     29536.16	0.11988	1785326.0	1329050.0	696563.0	0.295137	0.646061
     29536.66	0.11129	1658274.0	1234060.0	647133.0	0.295468	0.645513
     29537.16	0.11377	1694462.0	1260915.0	661193.0	0.295528	0.645547
     29537.66	0.11678	1735907.0	1291829.0	677857.0	0.295471	0.644878
     29538.16	0.11394	1696879.0	1262874.0	662780.0	0.295401	0.644702
     29538.67	0.11451	1708791.0	1271860.0	667660.0	0.295306	0.644457
     29539.17	0.11644	1733680.0	1290454.0	677532.0	0.295252	0.644293
     29539.67	0.13304	1981733.0	1475107.0	774799.0	0.295241	0.643882
     29540.17	0.13006	1939323.0	1443479.0	758203.0	0.295283	0.643860
     29540.67	0.12512	1864199.0	1387785.0	729239.0	0.295123	0.643463
     29541.17	0.11530	1717239.0	1277896.0	671698.0	0.295503	0.643161
     29541.68	0.13537	2016243.0	1500568.0	788897.0	0.295392	0.642963
     29542.18	0.13172	1962384.0	1460905.0	768480.0	0.295104	0.642397
     29542.68	0.12604	1877983.0	1398021.0	735607.0	0.295141	0.642117
     29543.18	0.13484	2009633.0	1496160.0	787254.0	0.295050	0.642106
     29543.68	0.13601	2023930.0	1506898.0	793486.0	0.294988	0.641373
     29544.19	0.18769	2794558.0	2080590.0	1095396.0	0.295022	0.641536
     29544.69	0.091397	1363357.0	1015028.0	534708.0	0.295034	0.640951
     29545.19	0.10107	1506079.0	1121619.0	590636.0	0.294736	0.641329
     29545.69	0.13475	2007632.0	1495031.0	787364.0	0.294809	0.641212
     29546.19	0.13055	1941311.0	1445762.0	761956.0	0.294727	0.640503
     29546.70	0.13361	1987606.0	1479956.0	780028.0	0.294919	0.640438
     29547.20	0.13641	2031912.0	1513439.0	797947.0	0.294593	0.640098
     29547.70	0.15354	2286873.0	1703070.0	897746.0	0.294753	0.640301
     29548.20	0.12393	1843063.0	1372667.0	723707.0	0.294673	0.640124
     29548.71	0.12160	1805657.0	1345352.0	709904.0	0.294269	0.639281
     29549.21	0.12975	1931208.0	1438805.0	759266.0	0.294333	0.639216
     29549.71	0.13062	1944454.0	1448339.0	764200.0	0.294564	0.639343
     29550.21	0.12900	1917060.0	1428107.0	753462.0	0.294443	0.639426
     29550.71	0.13092	1948842.0	1451460.0	766124.0	0.294665	0.638981
     29551.22	0.13135	1948076.0	1450873.0	766171.0	0.294677	0.638515
     29551.72	0.12599	1867581.0	1391305.0	734555.0	0.294402	0.638733
     29552.22	0.11672	1734605.0	1292237.0	682710.0	0.294405	0.638060
     29552.72	0.12742	1890128.0	1408107.0	743539.0	0.294398	0.638580
     29553.23	0.12382	1837947.0	1369791.0	723624.0	0.293991	0.638142
     29553.73	0.12794	1904373.0	1418597.0	749642.0	0.294484	0.637828
     29554.23	0.13129	1947750.0	1451178.0	767104.0	0.294299	0.637509
     29554.73	0.12951	1919024.0	1430052.0	755967.0	0.294106	0.637468
     29555.24	0.12937	1920781.0	1431353.0	756331.0	0.294112	0.637896
     29555.74	0.11336	1677631.0	1250202.0	660952.0	0.294078	0.637379
     29556.24	0.11664	1733848.0	1291911.0	683118.0	0.294221	0.637210
     29556.74	0.11870	1765127.0	1315456.0	695871.0	0.294039	0.636774
     29557.24	0.12913	1919033.0	1430461.0	756558.0	0.293825	0.636973
     29557.75	0.11169	1658871.0	1236455.0	653946.0	0.293889	0.636979
     29558.25	0.11981	1781699.0	1328105.0	702671.0	0.293814	0.636620
     29558.75	0.11769	1750024.0	1304291.0	689918.0	0.293970	0.636842
     29559.26	0.12738	1891646.0	1410048.0	746019.0	0.293824	0.636628
     29559.76	0.14345	2134235.0	1590618.0	841571.0	0.293986	0.636608
     29560.26	0.12048	1791774.0	1335241.0	706679.0	0.294094	0.636291
     29560.76	0.13025	1935895.0	1443228.0	763797.0	0.293687	0.636336
     29561.27	0.11659	1729508.0	1289180.0	682212.0	0.293831	0.636421
     29561.77	0.13747	2041281.0	1521865.0	805271.0	0.293641	0.636513
     29562.27	0.13204	1962028.0	1462580.0	774143.0	0.293777	0.636201
     29562.77	0.13118	1947220.0	1451738.0	768620.0	0.293641	0.635920
     29563.28	0.13716	2036472.0	1517943.0	803561.0	0.293863	0.636058
     29563.78	0.15002	2226715.0	1660563.0	879108.0	0.293371	0.636004
     29564.28	0.058934	875191.0	652616.0	345614.0	0.293453	0.635666
     29564.78	0.12747	1894065.0	1411998.0	747910.0	0.293720	0.635478
     29565.29	0.12642	1874805.0	1397974.0	740642.0	0.293481	0.635262
     29565.79	0.12653	1877851.0	1400166.0	741505.0	0.293537	0.635664
     29566.29	0.12944	1920227.0	1432080.0	758572.0	0.293315	0.635445
     29566.80	0.13964	2072234.0	1545359.0	818701.0	0.293371	0.635293
     29567.30	0.12120	1798486.0	1341038.0	710360.0	0.293501	0.635427
     29567.80	0.14022	2081267.0	1552148.0	822216.0	0.293337	0.635392
     29568.30	0.11549	1706038.0	1272599.0	674060.0	0.293112	0.635497
     29568.81	0.12464	1844015.0	1374945.0	728635.0	0.293532	0.634996
     29569.31	0.13653	2024002.0	1509484.0	799743.0	0.293309	0.635233
     29569.81	0.12698	1883723.0	1405003.0	744579.0	0.293211	0.634976
     29570.32	0.12548	1855493.0	1384238.0	733453.0	0.293001	0.635142
     29570.82	0.13033	1925254.0	1436137.0	761194.0	0.293101	0.634824
     29571.32	0.12916	1906066.0	1422361.0	753941.0	0.292723	0.634759
     29571.82	0.14021	2073763.0	1546850.0	819699.0	0.293144	0.635039
     29572.33	0.11391	1688142.0	1259284.0	667274.0	0.293085	0.635098
     29572.83	0.11803	1748642.0	1304889.0	691662.0	0.292722	0.634776
     29573.33	0.11323	1678622.0	1252286.0	663926.0	0.293003	0.634555
     29573.84	0.12215	1809604.0	1350398.0	715715.0	0.292709	0.634873
     29574.34	0.12916	1911975.0	1426708.0	756375.0	0.292767	0.634588
     29574.84	0.11233	1664596.0	1241960.0	658420.0	0.292892	0.634603
     29575.35	0.13489	1993106.0	1487734.0	788736.0	0.292440	0.634578
     29575.85	0.10449	1544308.0	1152428.0	611126.0	0.292705	0.634323
     29576.35	0.11735	1738758.0	1297481.0	688083.0	0.292746	0.634271
     29576.85	0.11435	1692584.0	1263336.0	669873.0	0.292501	0.634423
     29577.36	0.11623	1721102.0	1284588.0	681056.0	0.292527	0.634549
     29577.86	0.10764	1593221.0	1189362.0	630995.0	0.292341	0.633874
     29578.36	0.11969	1769657.0	1321164.0	700447.0	0.292273	0.634550
     29578.87	0.12547	1853287.0	1383647.0	734005.0	0.292238	0.633962
     29579.37	0.12571	1860746.0	1389142.0	736934.0	0.292291	0.633943
     29579.87	0.13908	2059351.0	1537496.0	815196.0	0.292236	0.634482
     29580.38	0.12724	1883390.0	1406302.0	745801.0	0.292110	0.634260
     29580.88	0.11509	1702194.0	1271272.0	674196.0	0.291900	0.634252
     29581.38	0.11577	1712266.0	1278710.0	678416.0	0.291966	0.633846
     29581.89	0.14250	2104083.0	1571203.0	833719.0	0.292038	0.633700
     29582.39	0.12803	1888811.0	1410591.0	748621.0	0.291939	0.633531
     29582.89	0.13755	2027932.0	1514535.0	803586.0	0.291908	0.633780
     29583.40	0.13334	1967563.0	1469828.0	779936.0	0.291650	0.633689
     29583.90	0.12537	1853560.0	1384549.0	734799.0	0.291734	0.633533
     29584.40	0.12399	1834012.0	1370531.0	727384.0	0.291308	0.633499
     29584.91	0.12422	1837179.0	1372158.0	728452.0	0.291847	0.633218
     29585.41	0.12757	1885920.0	1408972.0	747920.0	0.291555	0.633320
     29585.91	0.12198	1803240.0	1346949.0	715142.0	0.291743	0.633116
     29586.42	0.14317	2112127.0	1578196.0	837911.0	0.291413	0.633126
     29586.92	0.14256	2109586.0	1576290.0	837298.0	0.291418	0.632649
     29587.42	0.13639	2015067.0	1505460.0	799553.0	0.291554	0.632801
     29587.93	0.14244	2101206.0	1570009.0	833793.0	0.291430	0.632851
     29588.43	0.13616	2004080.0	1497678.0	795798.0	0.291269	0.632326
     29588.93	0.10601	1566323.0	1170520.0	621365.0	0.291283	0.633285
     29589.44	0.12881	1901329.0	1421038.0	754683.0	0.291166	0.632845
     29589.94	0.13158	1939984.0	1450048.0	770150.0	0.291083	0.632767
     29590.45	0.14344	2116036.0	1581894.0	840126.0	0.290922	0.632826
     29590.95	0.13899	2052699.0	1534466.0	815433.0	0.290973	0.632218
     29591.45	0.11429	1683266.0	1258152.0	668486.0	0.291092	0.632384
     29591.96	0.12892	1904535.0	1423720.0	756527.0	0.290965	0.632290
     29592.46	0.11250	1657735.0	1239175.0	658675.0	0.291006	0.631971
     29592.96	0.12789	1886485.0	1410111.0	749645.0	0.291047	0.631824
     29593.47	0.12426	1831841.0	1369519.0	727910.0	0.290862	0.632037
     29593.97	0.12754	1883072.0	1407935.0	748339.0	0.290780	0.632023
     29594.48	0.12744	1880962.0	1406481.0	747727.0	0.290693	0.631808
     29594.98	0.13152	1938814.0	1450063.0	770990.0	0.290469	0.631687
     29595.48	0.12696	1874458.0	1401932.0	745490.0	0.290468	0.631565
     29595.99	0.11118	1642231.0	1228055.0	653064.0	0.290624	0.631512
     29596.49	0.11450	1691614.0	1264873.0	672791.0	0.290711	0.631292
     29596.99	0.12447	1835916.0	1373139.0	730666.0	0.290444	0.630898
     29597.50	0.12417	1826157.0	1365770.0	726700.0	0.290495	0.630960
     29598.00	0.12103	1777858.0	1329927.0	707756.0	0.290285	0.630780
     29598.51	0.13476	1958911.0	1465390.0	779802.0	0.290267	0.630837
     29599.01	0.11767	1718427.0	1285345.0	684228.0	0.290382	0.630491
     29599.51	0.12460	1823534.0	1364015.0	726370.0	0.290344	0.630128
     29600.02	0.11954	1750346.0	1309727.0	697320.0	0.289995	0.630330
     29600.52	0.13164	1930361.0	1444313.0	769416.0	0.290073	0.629757
     29601.03	0.11840	1739347.0	1301538.0	693451.0	0.289963	0.629621
     29601.53	0.12999	1910102.0	1428900.0	761564.0	0.290252	0.629286
     29602.03	0.13958	2050767.0	1534654.0	817478.0	0.289909	0.629836
     29602.54	0.13141	1937332.0	1449473.0	772320.0	0.290112	0.629556
     29603.04	0.12994	1915617.0	1433858.0	764474.0	0.289671	0.628936
     29603.55	0.11800	1730910.0	1295551.0	690662.0	0.289711	0.629041
     29604.05	0.12482	1835808.0	1374156.0	732570.0	0.289645	0.629036
     29604.55	0.12633	1859266.0	1391235.0	741959.0	0.289990	0.628653
     29605.06	0.11902	1753099.0	1311968.0	699890.0	0.289857	0.628360
     29605.56	0.12567	1851547.0	1385913.0	739310.0	0.289662	0.628397
     29606.07	0.12393	1826986.0	1367621.0	730022.0	0.289595	0.627753
     29606.57	0.13517	1991791.0	1490963.0	795670.0	0.289612	0.627993
     29607.07	0.14306	2107645.0	1577571.0	842300.0	0.289685	0.627505
     29607.58	0.12024	1769658.0	1324714.0	707218.0	0.289590	0.627613
     29608.08	0.14515	2129900.0	1594490.0	851493.0	0.289521	0.627318
     29608.59	0.11466	1681976.0	1259047.0	672376.0	0.289614	0.627293
     29609.09	0.13460	1969503.0	1474248.0	787647.0	0.289633	0.626853
     29609.60	0.13063	1917875.0	1435797.0	767508.0	0.289498	0.626326
     29610.10	0.12739	1875600.0	1404331.0	750619.0	0.289368	0.626418
     29610.60	0.13368	1961402.0	1468347.0	785084.0	0.289522	0.626102
     29611.11	0.12506	1829233.0	1369783.0	732221.0	0.289244	0.626325
     29611.61	0.12024	1760655.0	1318457.0	705073.0	0.289224	0.625916
     29612.12	0.12581	1851392.0	1385967.0	741337.0	0.289540	0.625698
     29612.62	0.12406	1824792.0	1366350.0	730788.0	0.289323	0.625775
     29613.13	0.12157	1787782.0	1338965.0	716473.0	0.289079	0.625312
     29613.63	0.12396	1823397.0	1365558.0	730827.0	0.289138	0.625142
     29614.13	0.11647	1712193.0	1282075.0	686235.0	0.289295	0.625015
     29614.64	0.11932	1749967.0	1310489.0	701929.0	0.289197	0.624323
     29615.14	0.13041	1915155.0	1434292.0	768139.0	0.289127	0.624456
     29615.65	0.10831	1591869.0	1191935.0	638428.0	0.289331	0.624324
     29616.15	0.11313	1658016.0	1241775.0	665310.0	0.289080	0.624044
     29616.66	0.11747	1728832.0	1295010.0	694003.0	0.288928	0.623797
     29617.16	0.10976	1614227.0	1209274.0	648134.0	0.288836	0.623678
     29617.67	0.11483	1682167.0	1260035.0	675330.0	0.288943	0.623693
     29618.17	0.12181	1787491.0	1338923.0	717785.0	0.288947	0.623451
     29618.68	0.11231	1651584.0	1237143.0	663503.0	0.288930	0.623027
     29619.18	0.13099	1925237.0	1442486.0	774030.0	0.288681	0.622513
     29619.68	0.10967	1611877.0	1207579.0	648268.0	0.288782	0.622069
     29620.19	0.12886	1896659.0	1421031.0	762960.0	0.288711	0.621932
     29620.69	0.12008	1767023.0	1323798.0	710849.0	0.288791	0.621800
     29621.20	0.12057	1771922.0	1327512.0	712977.0	0.288758	0.621613
     29621.70	0.12850	1883630.0	1411423.0	758208.0	0.288602	0.621396
     29622.21	0.13706	2011505.0	1507638.0	809978.0	0.288339	0.621292
     29622.71	0.13266	1944527.0	1457255.0	782920.0	0.288464	0.621279
     29623.22	0.13051	1915875.0	1435739.0	771555.0	0.288495	0.621027
     29623.72	0.14150	2074388.0	1554536.0	835608.0	0.288489	0.620773
     29624.23	0.12454	1825489.0	1368419.0	735701.0	0.288192	0.620588
     29624.73	0.11005	1612838.0	1208744.0	649827.0	0.288414	0.620631
     29625.24	0.13457	1976023.0	1481099.0	796852.0	0.288302	0.619871
     29625.74	0.12666	1861279.0	1395168.0	750574.0	0.288249	0.619932
     29626.25	0.13550	1990542.0	1491997.0	802807.0	0.288291	0.619756
     29626.75	0.13486	1980722.0	1484560.0	799200.0	0.288343	0.619262
     29627.26	0.12926	1900829.0	1424528.0	766711.0	0.288450	0.619486
     29627.76	0.13175	1933009.0	1448618.0	779868.0	0.288468	0.619241
     29628.27	0.13470	1977055.0	1482238.0	798073.0	0.288055	0.619108
     29628.77	0.13411	1965925.0	1473950.0	793891.0	0.288017	0.618755
     29629.28	0.13194	1926479.0	1444293.0	778264.0	0.288074	0.618309
     29629.78	0.12953	1900717.0	1424794.0	768069.0	0.288204	0.617903
     29630.28	0.13563	1993029.0	1494074.0	805508.0	0.288149	0.617789
     29630.79	0.12842	1883546.0	1411834.0	761217.0	0.288267	0.617726
     29631.29	0.12712	1866410.0	1399144.0	754281.0	0.288156	0.617851
     29631.80	0.12643	1855075.0	1390840.0	750212.0	0.288017	0.617307
     29632.31	0.12817	1878132.0	1408322.0	759544.0	0.287879	0.617436
     29632.81	0.11888	1743376.0	1306722.0	705259.0	0.288302	0.616712
     29633.32	0.12640	1853943.0	1390315.0	750209.0	0.287784	0.616934
     29633.82	0.12739	1864554.0	1398409.0	754563.0	0.287687	0.616952
     29634.33	0.12577	1845593.0	1383994.0	747082.0	0.287827	0.616554
     29634.83	0.13564	1981903.0	1486247.0	802608.0	0.287803	0.616143
     29635.34	0.12238	1794411.0	1345592.0	726758.0	0.287843	0.615996
     29635.84	0.12568	1842491.0	1382313.0	746262.0	0.287360	0.616437
     29636.35	0.12387	1814857.0	1361473.0	735871.0	0.287439	0.615268
     29636.85	0.12165	1779877.0	1335283.0	721373.0	0.287401	0.615742
     29637.36	0.12252	1797642.0	1348262.0	729034.0	0.287659	0.614851
     29637.86	0.10905	1597203.0	1197962.0	647839.0	0.287632	0.614735
     29638.37	0.13097	1920251.0	1440360.0	778729.0	0.287563	0.614985
     29638.87	0.12017	1761241.0	1320906.0	714289.0	0.287701	0.614786
     29639.38	0.11810	1731151.0	1298602.0	702447.0	0.287498	0.614474
     29639.88	0.12517	1833929.0	1375980.0	744182.0	0.287294	0.614636
     29640.39	0.13114	1920827.0	1440735.0	779584.0	0.287602	0.614148
     29640.89	0.11740	1717532.0	1288387.0	697307.0	0.287497	0.613921
     29641.40	0.12770	1870075.0	1402920.0	759235.0	0.287423	0.614000
     29641.90	0.11488	1667534.0	1251480.0	677621.0	0.287019	0.613494
     29642.41	0.12867	1880288.0	1410807.0	763851.0	0.287263	0.613544
     29642.91	0.13721	2002000.0	1502032.0	813429.0	0.287328	0.613315
     29643.42	0.13352	1945481.0	1459971.0	790183.0	0.287093	0.613907
     29643.93	0.13152	1920887.0	1441505.0	780804.0	0.287099	0.613119
     29644.43	0.12159	1777527.0	1334147.0	722585.0	0.286931	0.613212
     29644.94	0.12717	1852972.0	1390551.0	753210.0	0.287091	0.613111
     29645.44	0.11781	1722714.0	1293006.0	700695.0	0.286931	0.612652
     29645.95	0.11892	1737828.0	1303988.0	706976.0	0.287209	0.612186
     29646.45	0.12446	1819106.0	1365491.0	740092.0	0.286831	0.612495
     29646.96	0.13151	1924076.0	1444369.0	783100.0	0.286773	0.612167
     29647.46	0.12405	1814966.0	1362539.0	738870.0	0.286717	0.611983
     29647.97	0.12694	1856688.0	1393341.0	755534.0	0.287090	0.612035
     29648.48	0.13590	1987120.0	1491907.0	809016.0	0.286631	0.611992
     29648.98	0.13059	1910026.0	1433942.0	778118.0	0.286690	0.611304
     29649.49	0.12190	1784541.0	1339938.0	726736.0	0.286538	0.611815
     29649.99	0.12073	1764123.0	1324269.0	718356.0	0.286793	0.611651
     29650.50	0.13390	1956415.0	1469117.0	797003.0	0.286452	0.611558
     29651.00	0.13305	1939648.0	1456223.0	790090.0	0.286660	0.611455
     29651.51	0.13361	1954525.0	1467644.0	796472.0	0.286489	0.611222
     29652.02	0.12503	1825414.0	1370631.0	743947.0	0.286536	0.611057
     29652.52	0.13794	2016444.0	1514389.0	821773.0	0.286324	0.611303
     29653.03	0.13804	2010784.0	1509776.0	819483.0	0.286563	0.611043
     29653.53	0.11655	1702116.0	1278290.0	693929.0	0.286349	0.610909
     29654.04	0.11820	1728465.0	1297746.0	704714.0	0.286605	0.610592
     29654.54	0.10970	1600845.0	1202628.0	652999.0	0.286022	0.610689
     29655.05	0.12644	1847257.0	1387774.0	753496.0	0.286001	0.610733
     29655.56	0.13327	1940341.0	1457782.0	791847.0	0.285948	0.610303
     29656.06	0.14083	2055947.0	1544499.0	839001.0	0.286037	0.610243
     29656.57	0.11613	1694697.0	1273385.0	691845.0	0.285825	0.610072
     29657.07	0.14271	2083628.0	1565359.0	850006.0	0.285995	0.610627
     29657.58	0.088468	1291635.0	970440.0	527473.0	0.285915	0.609652
     29658.09	0.098537	1440107.0	1081964.0	587838.0	0.285940	0.610082
     29658.59	0.10644	1555680.0	1168541.0	634784.0	0.286157	0.610226
     29659.10	0.12209	1782489.0	1339552.0	727942.0	0.285675	0.609869
     29659.60	0.12324	1793089.0	1347223.0	732509.0	0.285894	0.609325
     29660.11	0.11995	1749208.0	1314318.0	714531.0	0.285845	0.609447
     29660.62	0.11991	1752274.0	1316876.0	715844.0	0.285652	0.609555
     29661.12	0.11991	1751310.0	1315874.0	715336.0	0.285863	0.609504
     29661.63	0.12430	1812573.0	1362326.0	740739.0	0.285554	0.609300
     29662.13	0.11667	1703142.0	1279750.0	695927.0	0.285810	0.609175
     29662.64	0.14347	2089501.0	1570101.0	853747.0	0.285785	0.609260
     29663.15	0.11926	1738759.0	1306510.0	710769.0	0.285812	0.608767
     29663.65	0.13330	1940034.0	1458304.0	792981.0	0.285431	0.609230
     29664.16	0.12882	1879171.0	1411987.0	768112.0	0.285833	0.608818
     29664.66	0.15600	2274354.0	1709802.0	930237.0	0.285318	0.608693
     29665.17	0.17244	2513309.0	1889378.0	1027693.0	0.285353	0.608931
     29665.68	0.12743	1861481.0	1399192.0	761330.0	0.285477	0.608583
     29666.18	0.079797	1163981.0	874906.0	476127.0	0.285485	0.608432
     29666.69	0.10789	1569597.0	1180270.0	642101.0	0.285076	0.608753
     29667.19	0.12872	1870234.0	1406240.0	765175.0	0.285144	0.608570
     29667.70	0.13760	2004511.0	1507322.0	820428.0	0.285066	0.608264
     29668.21	0.13316	1930297.0	1451661.0	790182.0	0.284965	0.608200
     29668.71	0.14952	2170860.0	1632799.0	888734.0	0.284828	0.608253
     29669.22	0.14381	2090663.0	1572381.0	855815.0	0.284890	0.608292
     29669.73	0.10573	1528746.0	1149788.0	625970.0	0.284870	0.608030
     29670.23	0.12540	1814016.0	1364404.0	742844.0	0.284825	0.607987
     29670.74	0.12677	1822794.0	1371140.0	746687.0	0.284728	0.607752
     29671.25	0.13508	1948002.0	1465222.0	798080.0	0.284797	0.607553
     29671.75	0.13406	1938682.0	1458183.0	794236.0	0.284817	0.607566
     29672.26	0.13168	1905413.0	1433767.0	780647.0	0.284394	0.607937
     29672.76	0.13092	1892414.0	1423682.0	776029.0	0.284607	0.606812
     29673.27	0.13254	1921864.0	1446151.0	788007.0	0.284390	0.607154
     29673.78	0.10935	1592212.0	1198164.0	653101.0	0.284334	0.606814
     29674.28	0.12893	1865411.0	1403158.0	764580.0	0.284756	0.607154
     29674.79	0.12248	1772292.0	1333668.0	727021.0	0.284341	0.606733
     29675.30	0.12421	1803311.0	1356964.0	739557.0	0.284375	0.606954
     29675.80	0.12853	1870471.0	1407692.0	767325.0	0.284239	0.606796
     29676.31	0.12328	1796235.0	1351694.0	736759.0	0.284334	0.606853
     29676.82	0.13152	1913308.0	1440310.0	785298.0	0.283975	0.606550
     29677.32	0.11870	1726817.0	1300086.0	709058.0	0.283849	0.606248
     29677.83	0.12335	1793900.0	1350179.0	736225.0	0.284155	0.606457
     29678.34	0.12312	1784153.0	1343137.0	732396.0	0.283936	0.606442
     29678.84	0.12324	1788012.0	1345956.0	733860.0	0.284000	0.606542
     29679.35	0.11769	1707219.0	1285282.0	700993.0	0.283888	0.606236
     29679.86	0.12819	1865059.0	1404126.0	765727.0	0.283878	0.606345
     29680.36	0.11664	1694029.0	1275242.0	695932.0	0.283974	0.605639
     29680.87	0.12585	1828944.0	1376922.0	751056.0	0.283888	0.606126
     29681.38	0.11773	1711672.0	1288922.0	703348.0	0.283664	0.605710
     29681.88	0.13231	1920712.0	1446325.0	789257.0	0.283670	0.605689
     29682.39	0.12001	1746408.0	1314945.0	717577.0	0.283766	0.605670
     29682.90	0.13801	2008621.0	1512322.0	825427.0	0.283802	0.605501
     29683.40	0.12911	1875433.0	1412586.0	771148.0	0.283417	0.605297
     29683.91	0.12478	1814161.0	1366436.0	746081.0	0.283417	0.605127
     29684.42	0.13330	1937041.0	1458759.0	796380.0	0.283575	0.605265
     29684.92	0.12454	1809294.0	1362738.0	744275.0	0.283441	0.604841
     29685.43	0.11190	1621874.0	1221333.0	666923.0	0.283639	0.605024
     29685.94	0.12170	1770558.0	1333325.0	728219.0	0.283619	0.604829
     29686.44	0.13605	1974975.0	1487360.0	812504.0	0.283553	0.604637
     29686.95	0.12283	1784651.0	1344256.0	734437.0	0.283382	0.604492
     29687.46	0.11714	1700577.0	1280979.0	699909.0	0.283343	0.604430
     29687.97	0.13332	1924286.0	1449404.0	791658.0	0.283403	0.604778
     29688.47	0.12486	1803498.0	1358529.0	742721.0	0.283326	0.603837
     29688.98	0.12767	1853503.0	1396163.0	762858.0	0.283350	0.604411
     29689.49	0.13027	1883461.0	1419161.0	775930.0	0.283045	0.603759
     29689.99	0.12707	1842143.0	1387682.0	758661.0	0.283295	0.603835
     29690.50	0.12488	1805375.0	1360267.0	743723.0	0.283087	0.603768
     29691.01	0.12949	1870753.0	1409537.0	770701.0	0.283080	0.603716
     29691.51	0.13183	1917405.0	1444495.0	790044.0	0.283213	0.603426
     29692.02	0.12416	1796362.0	1353903.0	740462.0	0.282772	0.603472
     29692.53	0.13405	1939672.0	1461792.0	799105.0	0.282856	0.603926
     29693.04	0.12397	1796465.0	1353261.0	740409.0	0.283304	0.603070
     29693.54	0.12175	1755601.0	1322635.0	723761.0	0.283185	0.602920
     29694.05	0.12382	1790483.0	1349626.0	738788.0	0.282658	0.602572
     29694.56	0.13216	1914328.0	1442329.0	789110.0	0.283107	0.603109
     29695.06	0.11953	1728406.0	1302609.0	712940.0	0.282830	0.602727
     29695.57	0.12553	1818883.0	1370599.0	749953.0	0.282975	0.602993
     29696.08	0.11456	1660326.0	1251438.0	685441.0	0.282721	0.601986
     29696.59	0.12394	1796908.0	1354027.0	741576.0	0.282984	0.602061
     29697.09	0.11165	1618059.0	1219491.0	667900.0	0.282794	0.602050
     29697.60	0.11946	1727822.0	1302180.0	713161.0	0.282822	0.602088
     29698.11	0.11854	1717129.0	1294352.0	709288.0	0.282644	0.601504
     29698.62	0.10820	1563838.0	1178824.0	645755.0	0.282626	0.601852
     29699.12	0.11167	1609301.0	1213433.0	664912.0	0.282346	0.601554
     29699.63	0.12414	1798259.0	1355766.0	743259.0	0.282452	0.601077
     29700.14	0.12109	1752574.0	1321247.0	724083.0	0.282510	0.601425
     29700.65	0.11632	1681836.0	1267644.0	694745.0	0.282726	0.601370
     29701.15	0.11589	1675497.0	1263269.0	692521.0	0.282407	0.601120
     29701.66	0.11187	1620861.0	1221851.0	669842.0	0.282591	0.601080
     29702.17	0.14369	2084133.0	1570933.0	861582.0	0.282683	0.600655
     29702.67	0.12821	1852130.0	1396505.0	765754.0	0.282364	0.600867
     29703.18	0.12701	1837512.0	1385615.0	759951.0	0.282268	0.600645
     29703.69	0.12946	1872407.0	1411751.0	774532.0	0.282394	0.600327
     29704.20	0.13644	1978136.0	1491510.0	818157.0	0.282366	0.600490
     29704.70	0.12672	1836956.0	1385105.0	759796.0	0.282334	0.600481
     29705.21	0.13034	1882246.0	1419782.0	778982.0	0.281962	0.600271
     29705.72	0.11986	1735113.0	1308304.0	718117.0	0.282341	0.599854
     29706.23	0.13223	1908480.0	1439070.0	789812.0	0.282310	0.599957
     29706.74	0.14003	2022620.0	1525258.0	837560.0	0.282230	0.599426
     29707.24	0.12030	1736136.0	1309240.0	718790.0	0.282215	0.599633
     29707.75	0.13484	1947445.0	1468661.0	806569.0	0.282167	0.599317
     29708.26	0.12647	1832345.0	1381776.0	759171.0	0.282227	0.598898
     29708.77	0.13494	1945446.0	1467197.0	806025.0	0.282137	0.598994
     29709.27	0.13146	1894588.0	1428881.0	784886.0	0.282110	0.599108
     29709.78	0.13587	1967781.0	1484354.0	815703.0	0.281927	0.598685
     29710.29	0.13438	1943521.0	1465861.0	805788.0	0.282058	0.598377
     29710.80	0.13228	1915688.0	1444947.0	794323.0	0.282004	0.598338
     29711.30	0.13598	1965213.0	1482071.0	814835.0	0.282160	0.598210
     29711.81	0.13774	1991395.0	1502004.0	826035.0	0.282035	0.597918
     29712.32	0.12238	1771396.0	1335860.0	734885.0	0.282193	0.597617
     29712.83	0.12582	1820301.0	1373398.0	755478.0	0.281714	0.597693
     29713.34	0.12466	1804371.0	1360702.0	748568.0	0.282211	0.597594
     29713.84	0.12874	1865103.0	1406743.0	774135.0	0.282039	0.597286
     29714.35	0.12670	1828289.0	1379393.0	758677.0	0.281737	0.597823
     29714.86	0.12652	1831689.0	1381809.0	760355.0	0.281845	0.597363
     29715.37	0.12631	1823968.0	1376505.0	757407.0	0.281467	0.597402
     29715.88	0.12480	1805603.0	1362213.0	749767.0	0.281784	0.597103
     29716.38	0.12167	1761459.0	1329424.0	732007.0	0.281397	0.596711
     29716.89	0.12605	1823573.0	1376122.0	757891.0	0.281528	0.596485
     29717.40	0.11978	1731423.0	1306555.0	719675.0	0.281550	0.596349
     29717.91	0.12261	1757498.0	1326293.0	730454.0	0.281503	0.596477
     29718.41	0.12515	1802490.0	1360463.0	749570.0	0.281344	0.596081
     29718.92	0.12011	1732853.0	1308168.0	720763.0	0.281141	0.596073
     29719.43	0.11713	1693728.0	1278221.0	704182.0	0.281463	0.596188
     29719.94	0.12923	1861343.0	1404614.0	774210.0	0.281536	0.595675
     29720.45	0.11698	1683835.0	1270860.0	700532.0	0.281380	0.595609
     29720.96	0.11467	1651878.0	1246494.0	686960.0	0.281578	0.595814
     29721.46	0.12766	1841034.0	1389316.0	766007.0	0.281516	0.595376
     29721.97	0.12761	1839622.0	1388683.0	766015.0	0.281204	0.594909
     29722.48	0.12376	1783177.0	1346055.0	742503.0	0.281219	0.594906
     29722.99	0.13874	1997114.0	1507366.0	831709.0	0.281339	0.594636
     29723.50	0.12482	1785457.0	1347936.0	743397.0	0.281100	0.595100
     29724.00	0.14436	2078863.0	1568971.0	865892.0	0.281401	0.594415
     29724.51	0.12209	1747472.0	1319233.0	727959.0	0.281120	0.594561
     29725.02	0.11935	1721422.0	1299798.0	717159.0	0.280942	0.594667
     29725.53	0.13431	1934085.0	1460137.0	806063.0	0.281104	0.594124
     29726.04	0.11843	1703017.0	1285591.0	709984.0	0.281183	0.593731
     29726.55	0.12672	1811089.0	1367400.0	754858.0	0.281017	0.594137
     29727.05	0.11913	1714789.0	1294880.0	715408.0	0.280872	0.593320
     29727.56	0.11732	1692043.0	1277753.0	705928.0	0.280834	0.593345
     29728.07	0.13827	1991711.0	1503779.0	830971.0	0.281013	0.593142
     29728.58	0.11976	1726325.0	1303648.0	720069.0	0.280828	0.593575
     29729.09	0.13235	1905871.0	1439318.0	795591.0	0.280770	0.592839
     29729.60	0.11444	1644659.0	1241915.0	686754.0	0.280879	0.592434
     29730.10	0.13852	1997553.0	1508763.0	834213.0	0.280633	0.592557
     29730.61	0.12760	1826502.0	1379333.0	762415.0	0.280803	0.592864
     29731.12	0.12423	1783200.0	1346613.0	744591.0	0.280817	0.592513
     29731.63	0.13729	1976592.0	1492574.0	825256.0	0.280872	0.592564
     29732.14	0.13009	1872697.0	1414881.0	782264.0	0.280334	0.592608
     29732.65	0.17761	2560741.0	1934335.0	1070140.0	0.280533	0.591974
     29733.15	0.16054	2306519.0	1742299.0	963786.0	0.280534	0.592092
     29733.66	0.061188	882747.0	666737.0	369019.0	0.280643	0.591548
     29734.17	0.099945	1438940.0	1087065.0	601417.0	0.280425	0.591948
     29734.68	0.11817	1702458.0	1285827.0	711617.0	0.280671	0.591618
     29735.19	0.12875	1855488.0	1401870.0	775987.0	0.280341	0.591427
     29735.70	0.11729	1691780.0	1278162.0	707791.0	0.280358	0.591030
     29736.21	0.13114	1891390.0	1429040.0	791253.0	0.280309	0.591140
     29736.71	0.16520	2378814.0	1797218.0	995146.0	0.280362	0.591106
     29737.22	0.15390	2219475.0	1676777.0	928689.0	0.280397	0.590855
     29737.73	0.066975	965465.0	729590.0	404014.0	0.280127	0.591033
     29738.24	0.080994	1164335.0	879888.0	487630.0	0.280111	0.590238
     29738.75	0.11851	1668815.0	1261224.0	698752.0	0.280031	0.590542
     29739.26	0.11398	1617158.0	1222338.0	677202.0	0.279905	0.590551
     29739.77	0.12423	1769364.0	1337102.0	741243.0	0.280116	0.589931
     29740.28	0.15286	2189252.0	1654595.0	916920.0	0.280004	0.590291
     29740.78	0.14231	2047699.0	1547266.0	857640.0	0.280227	0.590060
     29741.29	0.10539	1516406.0	1146354.0	635683.0	0.279757	0.589642
     29741.80	0.074311	1070263.0	809127.0	448875.0	0.279704	0.589211
     29742.31	0.13214	1902312.0	1437972.0	797616.0	0.279836	0.589362
     29742.82	0.10932	1574949.0	1190675.0	660236.0	0.279703	0.589678
     29743.33	0.14011	2021007.0	1528277.0	847809.0	0.279455	0.589241
     29743.84	0.13667	1968452.0	1488115.0	825423.0	0.279737	0.589370
     29744.35	0.12466	1797669.0	1359144.0	754344.0	0.279636	0.588762
     29744.86	0.13285	1914560.0	1447446.0	803536.0	0.279687	0.588534
     29745.36	0.14176	2041004.0	1543436.0	857182.0	0.279431	0.588116
     29745.87	0.11527	1658780.0	1254215.0	696373.0	0.279573	0.588380
     29746.38	0.11736	1680334.0	1270999.0	705573.0	0.279189	0.588548
     29746.89	0.13520	1940543.0	1467307.0	814899.0	0.279539	0.588120
     29747.40	0.13232	1901945.0	1438634.0	798930.0	0.279183	0.588176
     29747.91	0.13376	1925887.0	1456480.0	809033.0	0.279364	0.587938
     29748.42	0.14367	2067893.0	1563881.0	868704.0	0.279360	0.587923
     29748.93	0.21177	3045255.0	2303443.0	1279874.0	0.279180	0.587643
     29749.44	0.079568	1137822.0	860529.0	478003.0	0.279324	0.587930
     29749.95	0.081794	1173016.0	887000.0	492988.0	0.279489	0.587360
     29750.45	0.13804	1983750.0	1500456.0	833808.0	0.279220	0.587521
     29750.96	0.13558	1946390.0	1472341.0	818691.0	0.279123	0.586902
     29751.47	0.13048	1869072.0	1414180.0	785945.0	0.278892	0.587418
     29751.98	0.13535	1938264.0	1466607.0	815484.0	0.278841	0.586925
     29752.49	0.15712	2257561.0	1708173.0	949881.0	0.278861	0.586843
     29753.00	0.12303	1762850.0	1334104.0	742073.0	0.278672	0.586568
     29753.51	0.099279	1425300.0	1078689.0	600168.0	0.278636	0.586292
     29754.02	0.12405	1784309.0	1350317.0	750916.0	0.278692	0.586801
     29754.53	0.12538	1798924.0	1361388.0	757536.0	0.278684	0.586189
     29755.04	0.12690	1818629.0	1376503.0	766082.0	0.278537	0.586012
     29755.55	0.12663	1810849.0	1370551.0	762789.0	0.278583	0.585987
     29756.06	0.11864	1690764.0	1279675.0	712115.0	0.278574	0.586122
     29756.57	0.14163	2035059.0	1540581.0	857250.0	0.278365	0.586185
     29757.07	0.13439	1932489.0	1462841.0	814300.0	0.278428	0.585807
     29757.58	0.11149	1602665.0	1213016.0	675623.0	0.278558	0.585230
     29758.09	0.11493	1652736.0	1251173.0	696193.0	0.278351	0.586210
     29758.60	0.13003	1862785.0	1410776.0	785526.0	0.277933	0.585542
     29759.11	0.11500	1646766.0	1246354.0	693892.0	0.278591	0.585661
     29759.62	0.11992	1719833.0	1302052.0	724966.0	0.278286	0.585572
     29760.13	0.12497	1794936.0	1359061.0	756849.0	0.278175	0.585386
     29760.64	0.12337	1771306.0	1340892.0	746963.0	0.278382	0.585075
     29761.15	0.10462	1501107.0	1136568.0	633145.0	0.278190	0.585069
     29761.66	0.12708	1820438.0	1378412.0	768106.0	0.278145	0.584760
     29762.17	0.13473	1932622.0	1463214.0	815698.0	0.278242	0.584346
     29762.68	0.12650	1807215.0	1368772.0	762538.0	0.277873	0.585017
     29763.19	0.11849	1700493.0	1287844.0	717503.0	0.277949	0.584948
     29763.70	0.13932	1990641.0	1507726.0	840417.0	0.277854	0.584460
     29764.21	0.12873	1821006.0	1379047.0	768906.0	0.277996	0.584179
     29764.72	0.11868	1698029.0	1286202.0	717327.0	0.277774	0.583917
     29765.23	0.13560	1940803.0	1470553.0	820183.0	0.277463	0.583866
     29765.74	0.12210	1743954.0	1321242.0	736613.0	0.277583	0.584265
     29766.25	0.12260	1746769.0	1323244.0	737573.0	0.277681	0.584477
     29766.76	0.12168	1740154.0	1318110.0	735022.0	0.277775	0.584054
     29767.26	0.12962	1849158.0	1400871.0	781026.0	0.277636	0.584241
     29767.77	0.12457	1779738.0	1348010.0	751831.0	0.277837	0.583873
     29768.28	0.12495	1781983.0	1350137.0	752953.0	0.277521	0.583959
     29768.79	0.13043	1859601.0	1409188.0	786419.0	0.277348	0.583279
     29769.30	0.12603	1798399.0	1362990.0	760649.0	0.277216	0.583264
     29769.81	0.13623	1941873.0	1471581.0	821307.0	0.277316	0.583196
     29770.32	0.12755	1828867.0	1385505.0	773051.0	0.277632	0.583475
     29770.83	0.12497	1791601.0	1357747.0	757637.0	0.277283	0.583378
     29771.34	0.13320	1903189.0	1442194.0	804731.0	0.277365	0.583413
     29771.85	0.12317	1765659.0	1338229.0	746505.0	0.277177	0.583700
     29772.36	0.12779	1831464.0	1387696.0	774435.0	0.277471	0.583266
     29772.87	0.12911	1843890.0	1397141.0	780153.0	0.277449	0.582693
     29773.38	0.12640	1811909.0	1373156.0	766648.0	0.277269	0.582839
     29773.89	0.12861	1843996.0	1397892.0	780601.0	0.276970	0.582657
     29774.40	0.12392	1775360.0	1345725.0	751240.0	0.277070	0.582963
     29774.91	0.12253	1754940.0	1330165.0	742951.0	0.277132	0.582428
     29775.42	0.11613	1664833.0	1262017.0	704773.0	0.277014	0.582591
     29775.93	0.13351	1912479.0	1449687.0	809841.0	0.277053	0.582265
     29776.44	0.11773	1683665.0	1276683.0	712942.0	0.276708	0.582621
     29776.95	0.11448	1640594.0	1243988.0	694903.0	0.276736	0.582305
     29777.46	0.11591	1652560.0	1252586.0	699933.0	0.277115	0.581981
     29777.97	0.11843	1672719.0	1268692.0	708730.0	0.276464	0.582267
     29778.48	0.11790	1674033.0	1269334.0	709454.0	0.276743	0.581752
     29778.99	0.11855	1686828.0	1279198.0	714626.0	0.276617	0.582229
     29779.50	0.11619	1656785.0	1256269.0	702085.0	0.276733	0.581847
     29780.01	0.11899	1689116.0	1281103.0	716194.0	0.276484	0.581526
     29780.52	0.12905	1841366.0	1396356.0	780647.0	0.276642	0.581498
     29781.03	0.099479	1420862.0	1077686.0	602534.0	0.276448	0.581427
     29781.54	0.11280	1611568.0	1222028.0	683324.0	0.276696	0.581298
     29782.05	0.12954	1852781.0	1404807.0	785941.0	0.276788	0.580773
     29782.56	0.12695	1814806.0	1376650.0	769583.0	0.276326	0.581559
     29783.07	0.13123	1866418.0	1415390.0	791825.0	0.276616	0.580820
     29783.58	0.13929	1989304.0	1509103.0	843831.0	0.276269	0.581318
     29784.09	0.13624	1943269.0	1474032.0	824635.0	0.276370	0.580816
     29784.60	0.11605	1658438.0	1257818.0	703565.0	0.276498	0.580973
     29785.12	0.13923	1988384.0	1508366.0	843677.0	0.276295	0.581013
     29785.63	0.12356	1762706.0	1337197.0	748026.0	0.276274	0.580893
     29786.14	0.12126	1731947.0	1313719.0	735071.0	0.276384	0.580650
     29786.65	0.13996	1992860.0	1511942.0	846030.0	0.276176	0.580595
     29787.16	0.12046	1712247.0	1298681.0	726578.0	0.276457	0.580759
     29787.67	0.12708	1814918.0	1377413.0	770673.0	0.275833	0.580698
     29788.18	0.13648	1949434.0	1479080.0	827652.0	0.276119	0.580583
     29788.69	0.14031	2003206.0	1519644.0	850712.0	0.276273	0.580158
     29789.20	0.13087	1865584.0	1415693.0	792600.0	0.275955	0.580056
     29789.71	0.13177	1877820.0	1424697.0	797747.0	0.276152	0.579923
     29790.22	0.14055	1996030.0	1514814.0	848181.0	0.275868	0.579954
     29790.73	0.12994	1854689.0	1407634.0	787943.0	0.275807	0.580240
     29791.24	0.13098	1855591.0	1408042.0	788189.0	0.276003	0.580217
     29791.75	0.12312	1751811.0	1329621.0	744698.0	0.275756	0.579670
     29792.26	0.13664	1939422.0	1471895.0	824123.0	0.275839	0.579986
     29792.77	0.12529	1783582.0	1353741.0	758076.0	0.275752	0.579844
     29793.28	0.12315	1754510.0	1331739.0	745796.0	0.275704	0.579789
     29793.79	0.13763	1960701.0	1488058.0	833629.0	0.275830	0.579439
     29794.30	0.12306	1750161.0	1328254.0	744305.0	0.275842	0.579170
     29794.81	0.12153	1733564.0	1315841.0	736907.0	0.275703	0.579770
     29795.32	0.12726	1811064.0	1375089.0	770717.0	0.275396	0.578952
     29795.84	0.13333	1900243.0	1442491.0	808574.0	0.275610	0.578855
     29796.35	0.11801	1680859.0	1276357.0	715404.0	0.275295	0.578918
     29796.86	0.12187	1733760.0	1316440.0	737913.0	0.275361	0.578860
     29797.37	0.12607	1792877.0	1361071.0	763164.0	0.275550	0.578554
     29797.88	0.12453	1773415.0	1346429.0	754583.0	0.275451	0.579046
     29798.39	0.12379	1763282.0	1338367.0	750490.0	0.275727	0.578479
     29798.90	0.11390	1624239.0	1233089.0	691626.0	0.275517	0.578232
     29799.41	0.13099	1867449.0	1418025.0	795272.0	0.275308	0.578336
     29799.92	0.11608	1651804.0	1254557.0	703811.0	0.275086	0.578028
     29800.43	0.12185	1738628.0	1319915.0	740409.0	0.275529	0.578120
     29800.94	0.11306	1608719.0	1221605.0	685178.0	0.275273	0.578242
     29801.45	0.12981	1851874.0	1406119.0	788829.0	0.275365	0.578039
     29801.97	0.12912	1831325.0	1390403.0	780264.0	0.275446	0.577717
     29802.48	0.12236	1727449.0	1312097.0	736316.0	0.275019	0.577723
     29802.99	0.12249	1742152.0	1323359.0	742403.0	0.274948	0.578036
     29803.50	0.13873	1975370.0	1500299.0	842140.0	0.275091	0.577473
     29804.01	0.12696	1802316.0	1368767.0	768222.0	0.275162	0.577587
     29804.52	0.13099	1846883.0	1402906.0	787745.0	0.274954	0.577127
     29805.03	0.11936	1700229.0	1291598.0	724847.0	0.274883	0.577675
     29805.54	0.13088	1852884.0	1407388.0	790306.0	0.275008	0.577071
     29806.05	0.12979	1845634.0	1402068.0	787181.0	0.274875	0.577245
     29806.56	0.11281	1604269.0	1218972.0	684436.0	0.274660	0.577168
     29807.07	0.12487	1773547.0	1347519.0	756800.0	0.274716	0.576921
     29807.59	0.13633	1932744.0	1468258.0	824893.0	0.274864	0.576578
     29808.10	0.20580	2922812.0	2220168.0	1247638.0	0.274963	0.576331
     29808.61	0.10282	1458161.0	1107634.0	622105.0	0.274950	0.576873
     29809.12	0.080487	1144571.0	869540.0	488591.0	0.274821	0.576439
     29809.63	0.10896	1545901.0	1174275.0	660025.0	0.274956	0.576129
     29810.14	0.12546	1783827.0	1355433.0	761886.0	0.274640	0.576079
     29810.65	0.14541	2066062.0	1569753.0	882245.0	0.274726	0.576204
     29811.16	0.15426	2190777.0	1664621.0	935497.0	0.274659	0.576275
     29811.68	0.087847	1241522.0	943238.0	530387.0	0.274775	0.575712
     29812.19	0.14439	2042726.0	1552696.0	873061.0	0.274292	0.575743
     29812.70	0.10637	1504701.0	1143343.0	643387.0	0.274638	0.574965
     29813.21	0.13294	1886225.0	1433475.0	806127.0	0.274476	0.575616
     29813.72	0.11979	1695465.0	1288792.0	724885.0	0.274252	0.575448
     29814.23	0.12354	1749999.0	1329729.0	747968.0	0.274640	0.575370
     29814.74	0.12613	1790922.0	1361034.0	765405.0	0.274486	0.575595
     29815.25	0.15183	2157911.0	1639600.0	922765.0	0.274688	0.574833
     29815.77	0.11073	1565935.0	1190159.0	669873.0	0.274396	0.574754
     29816.28	0.14270	2030307.0	1543110.0	868410.0	0.274387	0.574891
     29816.79	0.093190	1319272.0	1002583.0	564526.0	0.274500	0.574349
     29817.30	0.11821	1676509.0	1274348.0	717505.0	0.274279	0.574410
     29817.81	0.10836	1537569.0	1168771.0	657918.0	0.274250	0.574628
     29818.32	0.11360	1614521.0	1227514.0	691089.0	0.274047	0.574478
     29818.83	0.11527	1634571.0	1242670.0	699811.0	0.274118	0.574207
     29819.35	0.13107	1860350.0	1414372.0	796678.0	0.274079	0.573990
     29819.86	0.11936	1693671.0	1287240.0	725097.0	0.274398	0.573950
     29820.37	0.13308	1887563.0	1435198.0	808811.0	0.273984	0.573493
     29820.88	0.095637	1358165.0	1032732.0	581853.0	0.273927	0.573745
     29821.39	0.11831	1679908.0	1277520.0	719760.0	0.273818	0.573758
     29821.90	0.12227	1730171.0	1315704.0	741617.0	0.273848	0.573294
     29822.42	0.13547	1919025.0	1459308.0	822436.0	0.273855	0.573447
     29822.93	0.13226	1877089.0	1427362.0	804418.0	0.273894	0.573464
     29823.44	0.12910	1833697.0	1394146.0	786249.0	0.274052	0.572764
     29823.95	0.17713	2511986.0	1910182.0	1077083.0	0.273875	0.572942
     29824.46	0.099071	1395836.0	1061712.0	598797.0	0.273611	0.572715
     29824.97	0.10666	1514920.0	1151867.0	649741.0	0.273979	0.572566
     29825.49	0.13543	1915111.0	1456592.0	821291.0	0.273676	0.572977
     29826.00	0.12332	1749730.0	1331117.0	750764.0	0.273443	0.572682
     29826.51	0.13048	1854925.0	1410936.0	795828.0	0.273591	0.572626
     29827.02	0.13467	1907801.0	1451370.0	819179.0	0.273443	0.571961
     29827.53	0.12595	1780705.0	1354692.0	764543.0	0.273435	0.572051
     29828.04	0.14633	2075862.0	1578853.0	891190.0	0.273678	0.571896
     29828.56	0.11739	1664391.0	1266105.0	714628.0	0.273514	0.571938
     29829.07	0.12929	1833056.0	1394099.0	787083.0	0.273736	0.571670
     29829.58	0.12294	1741729.0	1324953.0	748185.0	0.273501	0.571482
     29830.09	0.14283	2020718.0	1537621.0	868064.0	0.273216	0.571726
     29830.60	0.12927	1827322.0	1390300.0	785181.0	0.273332	0.571361
     29831.11	0.13026	1842858.0	1402414.0	792090.0	0.273123	0.571275
     29831.63	0.14667	2077375.0	1580773.0	892710.0	0.273191	0.571407
     29832.14	0.12805	1814203.0	1380749.0	780218.0	0.273020	0.570808
     29832.65	0.13149	1856760.0	1413273.0	798616.0	0.272925	0.570783
     29833.16	0.11863	1676091.0	1276116.0	720899.0	0.272643	0.571077
     29833.67	0.12704	1798338.0	1368323.0	773095.0	0.273277	0.570939
     29834.19	0.12936	1824342.0	1388236.0	784794.0	0.273185	0.570368
     29834.70	0.12856	1808341.0	1376332.0	777921.0	0.272988	0.570552
     29835.21	0.12700	1791556.0	1363631.0	770809.0	0.272934	0.570466
     29835.72	0.11684	1655041.0	1260128.0	712582.0	0.272612	0.570074
     29836.23	0.14003	1978698.0	1506469.0	851801.0	0.272671	0.570171
     29836.75	0.11548	1632970.0	1243389.0	703170.0	0.272560	0.569997
     29837.26	0.12267	1739147.0	1323802.0	748967.0	0.272887	0.569568
     29837.77	0.12678	1789603.0	1362551.0	770791.0	0.272635	0.569697
     29838.28	0.11751	1661294.0	1264919.0	715550.0	0.272589	0.569712
     29838.80	0.12520	1773841.0	1350872.0	764230.0	0.272397	0.569637
     29839.31	0.12496	1764249.0	1343167.0	760252.0	0.272695	0.569136
     29839.82	0.12136	1715722.0	1306172.0	739478.0	0.272733	0.568911
     29840.33	0.11956	1681894.0	1280638.0	725038.0	0.272562	0.568890
     29840.84	0.12149	1719727.0	1309430.0	740991.0	0.272574	0.569359
     29841.36	0.11462	1613144.0	1228683.0	695817.0	0.272242	0.568611
     29841.87	0.12125	1714219.0	1305614.0	739108.0	0.272284	0.568985
     29842.38	0.12543	1769445.0	1347890.0	763503.0	0.272126	0.568379
     29842.89	0.12726	1796364.0	1368149.0	775148.0	0.272306	0.568160
     29843.41	0.13362	1886817.0	1436627.0	813649.0	0.272593	0.568524
     29843.92	0.13104	1834751.0	1397491.0	791825.0	0.272230	0.568093
     29844.43	0.12851	1814344.0	1382103.0	783229.0	0.272118	0.567936
     29844.94	0.11818	1673250.0	1274460.0	722114.0	0.272245	0.568095
     29845.46	0.13143	1862414.0	1418543.0	803891.0	0.272243	0.567922
     29845.97	0.12170	1717358.0	1308278.0	741723.0	0.272075	0.567491
     29846.48	0.12980	1829580.0	1393508.0	790122.0	0.272262	0.567392
     29846.99	0.12093	1707674.0	1300973.0	737454.0	0.272020	0.567664
     29847.50	0.12531	1748751.0	1332268.0	755347.0	0.272019	0.567461
     29848.02	0.13125	1832436.0	1395896.0	791706.0	0.272110	0.567102
     29848.53	0.12683	1777081.0	1353834.0	767975.0	0.272032	0.566939
     29849.04	0.12396	1739742.0	1325570.0	751619.0	0.271894	0.567368
     29849.56	0.12422	1748803.0	1332622.0	756104.0	0.271783	0.566725
     29850.07	0.12437	1750154.0	1333579.0	756369.0	0.271837	0.567092
     29850.58	0.12797	1806601.0	1376861.0	781564.0	0.271641	0.566265
     29851.09	0.13417	1893798.0	1442850.0	818937.0	0.271964	0.566368
     29851.61	0.13360	1876635.0	1430246.0	812001.0	0.271634	0.566100
     29852.12	0.12713	1786142.0	1361235.0	772726.0	0.271666	0.566223
     29852.63	0.12989	1831878.0	1396516.0	793159.0	0.271361	0.565712
     29853.14	0.13097	1848656.0	1408682.0	800050.0	0.271804	0.565736
     29853.66	0.12976	1826773.0	1392288.0	790695.0	0.271603	0.565791
     29854.17	0.12546	1772015.0	1350659.0	767003.0	0.271525	0.565857
     29854.68	0.12712	1795801.0	1369037.0	777770.0	0.271344	0.565432
     29855.19	0.12111	1705951.0	1300755.0	738747.0	0.271178	0.565745
     29855.71	0.12056	1700697.0	1296331.0	736642.0	0.271500	0.565191
     29856.22	0.13340	1868622.0	1424586.0	809368.0	0.271320	0.565383
     29856.73	0.10923	1537516.0	1172203.0	666172.0	0.271283	0.565092
     29857.25	0.11992	1687511.0	1286496.0	731625.0	0.271332	0.564409
     29857.76	0.12454	1750639.0	1334789.0	758915.0	0.271208	0.564639
     29858.27	0.12226	1720356.0	1311465.0	745316.0	0.271386	0.565092
     29858.78	0.11088	1564983.0	1193334.0	678551.0	0.271124	0.564547
     29859.30	0.11362	1600149.0	1220347.0	693724.0	0.270962	0.564816
     29859.81	0.11938	1676218.0	1278330.0	727038.0	0.270986	0.564331
     29860.32	0.13346	1879168.0	1433088.0	815100.0	0.270998	0.564276
     29860.84	0.10445	1474187.0	1124001.0	639269.0	0.271212	0.564325
     29861.35	0.11081	1558416.0	1188600.0	676131.0	0.270894	0.564145
     29861.86	0.11333	1598622.0	1219450.0	693827.0	0.270742	0.563933
     29862.37	0.12446	1753614.0	1337712.0	761078.0	0.270718	0.563980
     29862.89	0.12106	1694459.0	1292424.0	735578.0	0.270844	0.563618
     29863.40	0.14441	2028833.0	1547301.0	880400.0	0.270949	0.563891
     29863.91	0.12296	1730949.0	1320251.0	751449.0	0.270848	0.563574
     29864.43	0.13441	1896639.0	1446776.0	823484.0	0.270746	0.563549
     29864.94	0.11854	1671201.0	1274776.0	725834.0	0.270772	0.563204
     29865.45	0.13498	1897462.0	1447320.0	824144.0	0.270804	0.563124
     29865.97	0.12419	1743111.0	1329973.0	757201.0	0.270513	0.563285
     29866.48	0.13203	1856091.0	1415833.0	806228.0	0.270755	0.563107
     29866.99	0.12434	1754515.0	1338326.0	762217.0	0.270773	0.562944
     29867.50	0.13160	1853041.0	1413881.0	805162.0	0.270490	0.563050
     29868.02	0.13288	1863368.0	1421646.0	809800.0	0.270570	0.562783
     29868.53	0.12275	1728613.0	1319106.0	751512.0	0.270365	0.562622
     29869.04	0.13833	1943652.0	1482895.0	844791.0	0.270572	0.562662
     29869.56	0.12309	1730585.0	1320415.0	752671.0	0.270513	0.562073
     29870.07	0.14061	1979537.0	1510477.0	860977.0	0.270437	0.562113
     29870.58	0.13022	1831298.0	1397258.0	796461.0	0.270513	0.562089
     29871.10	0.13252	1861890.0	1420816.0	809639.0	0.270361	0.562398
     29871.61	0.14075	1973018.0	1505913.0	858470.0	0.270165	0.562003
     29872.12	0.12982	1818453.0	1387995.0	791380.0	0.270126	0.561837
     29872.64	0.13008	1828690.0	1395455.0	795824.0	0.270379	0.561598
     29873.15	0.13863	1935329.0	1477228.0	842336.0	0.270110	0.561744
     29873.66	0.12912	1810432.0	1381800.0	788090.0	0.270178	0.561530
     29874.18	0.12599	1768898.0	1350326.0	770241.0	0.270011	0.561398
     29874.69	0.12944	1818909.0	1388263.0	792124.0	0.270184	0.561091
     29875.20	0.12404	1738572.0	1327279.0	757201.0	0.269933	0.561258
     29875.72	0.13019	1823409.0	1391955.0	794304.0	0.269999	0.560998
     29876.23	0.12809	1790795.0	1367226.0	780309.0	0.269876	0.560849
     29876.74	0.12724	1776451.0	1356454.0	773869.0	0.269744	0.561227
     29877.26	0.12116	1689590.0	1290113.0	736243.0	0.269756	0.560925
     29877.77	0.12053	1685310.0	1287216.0	734681.0	0.269468	0.560801
     29878.29	0.12575	1763380.0	1346555.0	768619.0	0.269683	0.560709
     29878.80	0.12571	1756910.0	1341643.0	766184.0	0.269662	0.560228
     29879.31	0.12102	1679670.0	1282373.0	732640.0	0.269885	0.559813
     29879.83	0.12549	1726438.0	1318194.0	752999.0	0.269798	0.559954
     29880.34	0.11850	1634829.0	1248562.0	713124.0	0.269546	0.560092
     29880.85	0.12309	1716720.0	1311099.0	748753.0	0.269550	0.560212
     29881.37	0.12386	1734770.0	1324821.0	756921.0	0.269597	0.559774
     29881.88	0.11122	1546329.0	1180803.0	675092.0	0.269689	0.559101
     29882.39	0.12630	1766400.0	1349107.0	770777.0	0.269501	0.559799
     29882.91	0.11958	1671618.0	1276589.0	729610.0	0.269600	0.559437
     29883.42	0.13058	1827425.0	1395794.0	797477.0	0.269444	0.559766
     29883.94	0.12307	1729619.0	1320874.0	754790.0	0.269608	0.559609
     29884.45	0.12773	1795956.0	1371833.0	784028.0	0.269390	0.559458
     29884.96	0.12053	1659745.0	1267969.0	724712.0	0.269248	0.559397
     29885.48	0.13267	1832583.0	1399708.0	800244.0	0.269463	0.559102
     29885.99	0.12790	1780112.0	1360047.0	777516.0	0.269157	0.559170
     29886.50	0.12811	1776605.0	1357054.0	775893.0	0.269388	0.559057
     29887.02	0.12990	1809754.0	1382533.0	790578.0	0.269274	0.558908
     29887.53	0.12660	1772766.0	1354322.0	774515.0	0.269240	0.558819
     29888.05	0.12627	1761822.0	1346459.0	770115.0	0.268870	0.558694
     29888.56	0.11613	1620077.0	1237903.0	707960.0	0.269055	0.558787
     29889.07	0.13237	1855100.0	1417846.0	811211.0	0.268800	0.558366
     29889.59	0.12179	1695787.0	1295850.0	741412.0	0.268980	0.558366
     29890.10	0.12546	1753848.0	1340144.0	766665.0	0.269035	0.558482
     29890.62	0.12446	1743563.0	1332233.0	762264.0	0.269074	0.558319
     29891.13	0.12831	1791207.0	1369284.0	783456.0	0.268602	0.558328
     29891.64	0.12376	1732199.0	1323592.0	757899.0	0.269042	0.557554
     29892.16	0.12730	1776851.0	1357963.0	777144.0	0.268857	0.558115
     29892.67	0.13583	1891012.0	1445191.0	826959.0	0.268871	0.558242
     29893.19	0.13672	1912980.0	1462130.0	836956.0	0.268768	0.557878
     29893.70	0.14132	1977239.0	1511368.0	865249.0	0.268686	0.557753
     29894.21	0.11184	1567378.0	1197935.0	686368.0	0.268805	0.556941
     29894.73	0.14162	1977783.0	1511815.0	865917.0	0.268666	0.557277
     29895.24	0.11599	1610612.0	1231206.0	705177.0	0.268620	0.557301
     29895.76	0.11728	1639112.0	1253072.0	717927.0	0.268556	0.556986
     29896.27	0.12304	1723523.0	1317366.0	755100.0	0.268736	0.556539
     29896.78	0.12866	1801985.0	1377428.0	789194.0	0.268671	0.556961
     29897.30	0.13644	1904719.0	1456559.0	834270.0	0.268258	0.557275
     29897.81	0.13207	1844903.0	1410493.0	808328.0	0.268487	0.556727
     29898.33	0.12608	1750505.0	1338755.0	767408.0	0.268164	0.556477
     29898.84	0.097807	1362889.0	1042333.0	597460.0	0.268145	0.556529
     29899.36	0.13059	1822544.0	1393680.0	798495.0	0.268286	0.556974
     29899.87	0.11158	1560491.0	1193540.0	684021.0	0.268077	0.556690
     29900.38	0.11309	1570824.0	1201513.0	689208.0	0.268019	0.555794
     29900.90	0.12350	1719342.0	1315168.0	754180.0	0.267977	0.556089
     29901.41	0.11862	1657705.0	1267885.0	727187.0	0.268084	0.555922
     29901.93	0.12891	1794821.0	1372694.0	787228.0	0.268130	0.556013
     29902.44	0.13590	1893977.0	1448669.0	831038.0	0.268034	0.555725
     29902.96	0.078573	1092725.0	836106.0	479438.0	0.267674	0.556141
     29903.47	0.12066	1682385.0	1287059.0	738269.0	0.267853	0.555807
     29903.98	0.10934	1520176.0	1162710.0	667032.0	0.268073	0.555671
     29904.50	0.13250	1841949.0	1408990.0	808299.0	0.267951	0.555696
     29905.01	0.12177	1698295.0	1299018.0	745263.0	0.268016	0.555627
     29905.53	0.14248	1988772.0	1521190.0	872812.0	0.268024	0.555528
     29906.04	0.11641	1606653.0	1229384.0	705667.0	0.267640	0.555125
     29906.56	0.14642	2029498.0	1552831.0	891183.0	0.267709	0.555285
     29907.07	0.11177	1558423.0	1192305.0	684442.0	0.267786	0.555040
     29907.59	0.12929	1800951.0	1377899.0	791089.0	0.267755	0.554905
     29908.10	0.13094	1820809.0	1393137.0	799901.0	0.267723	0.554825
     29908.62	0.12982	1806479.0	1382155.0	793623.0	0.267736	0.554791
     29909.13	0.13076	1823430.0	1394911.0	801218.0	0.267889	0.554453
     29909.64	0.13655	1900419.0	1454177.0	835022.0	0.267634	0.554737
     29910.16	0.18759	2611468.0	1998315.0	1147836.0	0.267608	0.554426
     29910.67	0.10700	1490734.0	1141043.0	655334.0	0.267326	0.554553
     29911.19	0.086726	1210371.0	926254.0	532234.0	0.267534	0.554065
     29911.70	0.13060	1815834.0	1389756.0	798069.0	0.267417	0.554688
     29912.22	0.13939	1936197.0	1481494.0	851516.0	0.267675	0.553788
     29912.73	0.13027	1805067.0	1381729.0	793992.0	0.267262	0.554018
     29913.25	0.14514	2016770.0	1543861.0	886991.0	0.267211	0.554207
     29913.76	0.12493	1746536.0	1336858.0	768177.0	0.267312	0.554057
     29914.28	0.13344	1862319.0	1425552.0	819053.0	0.267263	0.554166
     29914.79	0.14892	2081983.0	1593698.0	916137.0	0.267264	0.553646
     29915.31	0.11296	1579420.0	1208952.0	694985.0	0.267304	0.553619
     29915.82	0.12488	1738200.0	1330822.0	765065.0	0.267053	0.553591
     29916.34	0.13160	1838225.0	1407174.0	809186.0	0.267217	0.553310
     29916.85	0.12488	1740126.0	1332069.0	765967.0	0.267224	0.553350
     29917.37	0.12662	1762090.0	1349360.0	776001.0	0.266870	0.553232
     29917.88	0.12137	1690132.0	1294365.0	744447.0	0.266786	0.553134
     29918.40	0.12275	1681466.0	1287471.0	740928.0	0.266986	0.552532
     29918.91	0.13691	1879671.0	1439197.0	827885.0	0.267011	0.552966
     29919.43	0.11387	1569463.0	1201917.0	691448.0	0.266816	0.552885
     29919.94	0.12673	1751845.0	1341909.0	772131.0	0.266576	0.552694
     29920.46	0.12059	1669500.0	1278592.0	735782.0	0.266765	0.552581
     29920.97	0.11885	1644656.0	1260010.0	725153.0	0.266412	0.552492
     29921.49	0.13308	1843870.0	1412099.0	812753.0	0.266789	0.552405
     29922.00	0.11717	1624765.0	1244543.0	716394.0	0.266595	0.552293
     29922.52	0.11465	1596312.0	1222765.0	704138.0	0.266581	0.551896
     29923.03	0.12017	1666116.0	1275977.0	734631.0	0.266783	0.552099
     29923.55	0.11877	1653620.0	1266352.0	729403.0	0.266826	0.551669
     29924.06	0.12268	1711264.0	1310707.0	754775.0	0.266666	0.551902
     29924.58	0.12523	1745825.0	1337213.0	770232.0	0.266640	0.551651
     29925.09	0.11351	1581979.0	1211725.0	697875.0	0.266632	0.551760
     29925.61	0.14235	1978969.0	1516272.0	873448.0	0.266321	0.551561
     29926.12	0.12360	1711661.0	1311480.0	755680.0	0.266308	0.551294
     29926.64	0.12082	1684545.0	1290812.0	743385.0	0.266224	0.551813
     29927.15	0.13889	1933970.0	1481997.0	854209.0	0.266184	0.550970
     29927.67	0.12243	1706122.0	1307446.0	753549.0	0.266147	0.551037
     29928.18	0.12497	1739885.0	1333113.0	768337.0	0.266302	0.551044
     29928.70	0.13542	1885215.0	1444477.0	832722.0	0.266295	0.550803
     29929.21	0.12100	1682226.0	1289143.0	743157.0	0.266140	0.550826
     29929.73	0.12509	1743212.0	1336095.0	770315.0	0.265978	0.550707
     29930.24	0.12373	1718447.0	1316515.0	758938.0	0.266433	0.550823
     29930.76	0.12603	1751908.0	1342740.0	774441.0	0.265993	0.550326
     29931.27	0.12405	1722877.0	1320299.0	761435.0	0.266137	0.550409
     29931.79	0.11722	1624842.0	1245457.0	718410.0	0.265908	0.550217
     29932.31	0.13338	1851101.0	1419040.0	818675.0	0.265800	0.550049
     29932.82	0.12425	1718163.0	1316786.0	759805.0	0.266062	0.549887
     29933.34	0.12896	1789725.0	1371687.0	791493.0	0.266021	0.549876
     29933.85	0.12996	1806150.0	1384725.0	798890.0	0.265696	0.550034
     29934.37	0.13277	1831837.0	1404311.0	810412.0	0.265772	0.549759
     29934.88	0.12149	1687188.0	1293432.0	746640.0	0.265764	0.549471
     29935.40	0.12976	1806097.0	1384799.0	799335.0	0.265613	0.549530
     29935.91	0.12830	1784480.0	1368570.0	789786.0	0.265361	0.549760
     29936.43	0.12269	1692802.0	1298235.0	749512.0	0.265379	0.549339
     29936.94	0.13401	1850954.0	1419108.0	819759.0	0.265673	0.548773
     29937.46	0.12551	1740060.0	1334872.0	770953.0	0.265084	0.548963
     29937.98	0.12274	1700091.0	1303722.0	753019.0	0.265459	0.548888
     29938.49	0.13409	1867715.0	1432194.0	827346.0	0.265508	0.548740
     29939.01	0.11618	1615261.0	1238421.0	715348.0	0.265659	0.548823
     29939.52	0.12659	1756806.0	1347118.0	778109.0	0.265530	0.548856
     29940.04	0.11900	1648941.0	1264801.0	730777.0	0.265218	0.548562
     29940.55	0.11849	1644999.0	1261349.0	728954.0	0.265558	0.548326
     29941.07	0.12614	1745886.0	1338881.0	773813.0	0.265428	0.548259
     29941.59	0.11524	1589607.0	1219806.0	705058.0	0.264795	0.548167
     29942.10	0.12122	1673519.0	1283502.0	742269.0	0.265336	0.547636
     29942.62	0.11339	1577704.0	1209886.0	699296.0	0.265444	0.548207
     29943.13	0.11550	1594180.0	1222884.0	707128.0	0.265147	0.547756
     29943.65	0.11314	1555185.0	1192776.0	689778.0	0.265311	0.547669
     29944.16	0.11578	1605500.0	1231941.0	712262.0	0.264844	0.547900
     29944.68	0.12130	1675099.0	1285025.0	743065.0	0.265094	0.547750
     29945.20	0.11111	1529886.0	1173763.0	678723.0	0.264978	0.547757
     29945.71	0.12663	1757296.0	1348011.0	779949.0	0.265146	0.547157
     29946.23	0.11842	1637032.0	1256157.0	726736.0	0.264828	0.547249
     29946.74	0.13216	1828003.0	1402492.0	811418.0	0.264973	0.547223
     29947.26	0.13108	1816851.0	1393934.0	806593.0	0.264975	0.547066
     29947.78	0.11546	1603434.0	1230324.0	711989.0	0.264870	0.546970
     29948.29	0.13786	1908851.0	1464325.0	847221.0	0.265107	0.547188
     29948.81	0.13961	1938203.0	1487563.0	861348.0	0.264622	0.546396
     29949.32	0.11420	1579259.0	1211772.0	701595.0	0.264872	0.546483
     29949.84	0.13896	1916922.0	1471054.0	851864.0	0.264742	0.546308
     29950.36	0.12945	1788252.0	1372391.0	794716.0	0.264684	0.546325
     29950.87	0.12651	1754017.0	1346160.0	779566.0	0.264652	0.546274
     29951.39	0.12436	1716945.0	1318151.0	763306.0	0.264317	0.546326
     29951.90	0.12992	1800622.0	1381985.0	800532.0	0.264611	0.546000
     29952.42	0.12857	1774913.0	1362397.0	789329.0	0.264506	0.545818
     29952.94	0.13412	1849854.0	1420115.0	822700.0	0.264369	0.545902
     29953.45	0.13563	1878118.0	1441723.0	835225.0	0.264431	0.545893
     29953.97	0.13208	1833017.0	1407067.0	815246.0	0.264456	0.545773
     29954.48	0.13687	1896433.0	1455492.0	843751.0	0.264631	0.545242
     29955.00	0.13417	1851596.0	1421664.0	823763.0	0.264220	0.545700
     29955.52	0.12933	1782753.0	1368807.0	793481.0	0.264219	0.545265
     29956.03	0.12900	1780018.0	1366925.0	792182.0	0.264060	0.545528
     29956.55	0.13271	1827611.0	1403720.0	813609.0	0.263884	0.545401
     29957.07	0.13029	1803195.0	1384605.0	802811.0	0.264145	0.545051
     29957.58	0.12623	1743285.0	1338454.0	775933.0	0.264256	0.545204
     29958.10	0.12315	1704624.0	1309290.0	759407.0	0.263860	0.544702
     29958.61	0.13136	1820451.0	1397928.0	810643.0	0.264093	0.544919
     29959.13	0.12684	1751930.0	1345379.0	780515.0	0.264042	0.544477
     29959.65	0.12244	1691218.0	1298885.0	753637.0	0.263943	0.544351
     29960.16	0.12441	1699159.0	1305343.0	757022.0	0.263668	0.544829
     29960.68	0.12408	1711702.0	1314895.0	762797.0	0.263731	0.544520
     29961.20	0.13230	1826749.0	1402989.0	814239.0	0.263933	0.544106
     29961.71	0.12328	1696484.0	1303172.0	756227.0	0.263757	0.544215
     29962.23	0.12133	1662642.0	1277560.0	741774.0	0.263456	0.543663
     29962.75	0.13079	1808930.0	1389548.0	806789.0	0.263757	0.543672
     29963.26	0.13390	1852334.0	1422642.0	826009.0	0.263931	0.543665
     29963.78	0.10731	1482191.0	1138611.0	661106.0	0.263712	0.543650
     29964.30	0.13285	1825689.0	1402869.0	814328.0	0.263438	0.543911
     29964.81	0.11070	1522880.0	1170183.0	679458.0	0.263443	0.543620
     29965.33	0.12327	1705741.0	1310539.0	760867.0	0.263561	0.543735
     29965.84	0.12742	1757224.0	1349986.0	784437.0	0.263641	0.542883
     29966.36	0.11248	1556105.0	1195355.0	694596.0	0.263743	0.542868
     29966.88	0.12077	1654462.0	1271491.0	738764.0	0.263286	0.542967
     29967.39	0.13305	1833137.0	1408774.0	818520.0	0.263309	0.542977
     29967.91	0.12523	1726326.0	1326905.0	771217.0	0.263146	0.542635
     29968.43	0.13902	1922665.0	1477688.0	858792.0	0.263234	0.542707
     29968.94	0.12111	1670085.0	1283154.0	745726.0	0.263553	0.542718
     29969.46	0.12453	1704960.0	1310519.0	761710.0	0.263118	0.542613
     29969.98	0.12950	1787438.0	1373661.0	798618.0	0.263304	0.542352
     29970.49	0.12528	1733921.0	1332816.0	774868.0	0.263091	0.542357
     29971.01	0.12637	1751490.0	1345868.0	782435.0	0.263428	0.542384
     29971.53	0.12740	1755253.0	1349260.0	784428.0	0.263057	0.542357
     29972.04	0.12735	1752951.0	1347585.0	783919.0	0.262987	0.541764
     29972.56	0.12808	1774396.0	1363806.0	793211.0	0.263181	0.541945
     29973.08	0.11106	1534595.0	1179683.0	686235.0	0.263021	0.541781
     29973.60	0.12074	1657017.0	1273892.0	741063.0	0.262942	0.541746
     29974.11	0.12459	1716246.0	1319254.0	767417.0	0.263073	0.541791
     29974.63	0.13145	1815547.0	1395885.0	812215.0	0.262858	0.541519
     29975.15	0.12896	1778270.0	1367209.0	795130.0	0.262870	0.542021
     29975.66	0.13502	1864083.0	1433480.0	834522.0	0.262664	0.541001
     29976.18	0.13210	1817173.0	1397420.0	813330.0	0.262654	0.541246
     29976.70	0.17524	2411559.0	1854182.0	1079305.0	0.262830	0.541126
     29977.21	0.081508	1129044.0	868015.0	504903.0	0.262918	0.541843
     29977.73	0.12130	1671158.0	1285024.0	748109.0	0.262739	0.540984
     29978.25	0.12337	1696216.0	1304854.0	759992.0	0.262309	0.540539
     29978.76	0.13547	1870678.0	1438390.0	837907.0	0.262776	0.540373
     29979.28	0.12776	1764243.0	1356577.0	789772.0	0.262757	0.540976
     29979.80	0.12885	1776257.0	1366606.0	795736.0	0.262178	0.540818
     29980.32	0.13272	1821971.0	1400972.0	816329.0	0.262753	0.540104
     29980.83	0.19213	2641153.0	2031483.0	1183673.0	0.262449	0.540144
     29981.35	0.086342	1193619.0	918122.0	534757.0	0.262415	0.540518
     29981.87	0.099484	1373166.0	1056268.0	615259.0	0.262377	0.540454
     29982.38	0.11542	1590627.0	1223687.0	713268.0	0.262260	0.539766
     29982.90	0.10937	1499022.0	1153061.0	672030.0	0.262393	0.539872
     29983.42	0.11623	1591407.0	1224120.0	713214.0	0.262396	0.540196
     29983.94	0.14387	1968358.0	1514038.0	882580.0	0.262419	0.539686
     29984.45	0.10985	1512377.0	1163196.0	678218.0	0.262511	0.539458
     29984.97	0.15206	2088588.0	1607063.0	936931.0	0.262080	0.539554
     29985.49	0.090963	1253155.0	964376.0	562309.0	0.261938	0.539430
     29986.00	0.093021	1284238.0	987983.0	576145.0	0.262255	0.539306
     29986.52	0.11862	1636360.0	1258919.0	734191.0	0.262221	0.539239
     29987.04	0.10881	1485977.0	1143380.0	666913.0	0.262084	0.539084
     29987.56	0.11346	1556199.0	1197549.0	698485.0	0.261969	0.539119
     29988.07	0.13103	1790186.0	1377972.0	803694.0	0.261707	0.539150
     29988.59	0.15450	2108972.0	1622931.0	946941.0	0.261967	0.538752
     29989.11	0.18450	2530644.0	1947588.0	1136316.0	0.261882	0.538800
     29989.63	0.10104	1387634.0	1067878.0	622989.0	0.261927	0.538900
     29990.14	0.090421	1245922.0	958883.0	559504.0	0.261862	0.538718
     29990.66	0.11046	1518514.0	1168909.0	681938.0	0.261661	0.538887
     29991.18	0.14119	1922794.0	1479703.0	863691.0	0.261938	0.538382
     29991.70	0.12843	1762101.0	1356381.0	791843.0	0.261687	0.538212
     29992.21	0.12022	1649672.0	1269749.0	741068.0	0.261757	0.538482
     29992.73	0.13198	1803761.0	1388328.0	810334.0	0.261774	0.538409
     29993.25	0.20257	2772990.0	2134638.0	1246429.0	0.261629	0.538014
     29993.77	0.096556	1321564.0	1017389.0	594062.0	0.261576	0.538011
     29994.28	0.096722	1308608.0	1007555.0	588502.0	0.261437	0.537702
     29994.80	0.12144	1656430.0	1275391.0	744838.0	0.261412	0.537841
     29995.32	0.12461	1711737.0	1317921.0	769949.0	0.261453	0.537486
     29995.84	0.13462	1854908.0	1427859.0	834054.0	0.261659	0.537633
     29996.35	0.15088	2076860.0	1598900.0	933994.0	0.261541	0.537601
     29996.87	0.14507	2002526.0	1541779.0	900628.0	0.261472	0.537600
     29997.39	0.18876	2597912.0	2000289.0	1168730.0	0.261416	0.537374
     29997.91	0.080787	1111738.0	856085.0	500441.0	0.261310	0.536880
     29998.42	0.10789	1474611.0	1135448.0	663396.0	0.261367	0.537410
     29998.94	0.12904	1775849.0	1367621.0	799291.0	0.261206	0.537103
     29999.46	0.12920	1771416.0	1364293.0	797205.0	0.261143	0.537280
     29999.98	0.12815	1745235.0	1344436.0	785809.0	0.260915	0.537016
     30000.50	0.12581	1725223.0	1328676.0	776663.0	0.261173	0.536932
     30001.01	0.12711	1739494.0	1339929.0	783197.0	0.260978	0.536988
     30001.53	0.12535	1715656.0	1321126.0	772353.0	0.261311	0.536798
     30002.05	0.11597	1592986.0	1226616.0	717125.0	0.261351	0.536764
     30002.57	0.13511	1853334.0	1427857.0	834854.0	0.260811	0.536673
     30003.08	0.12476	1707223.0	1315290.0	769184.0	0.260811	0.536482
     30003.60	0.12187	1671119.0	1287492.0	753176.0	0.260797	0.536152
     30004.12	0.12840	1766730.0	1360984.0	796198.0	0.260922	0.536115
     30004.64	0.12138	1664228.0	1282054.0	750101.0	0.260898	0.536011
     30005.16	0.11890	1629822.0	1255608.0	734732.0	0.260851	0.535869
     30005.67	0.11459	1567239.0	1207576.0	706676.0	0.260700	0.535798
     30006.19	0.12402	1708176.0	1315627.0	769934.0	0.261113	0.535764
     30006.71	0.11402	1564379.0	1205215.0	705266.0	0.260831	0.535838
     30007.23	0.12934	1772240.0	1365902.0	799490.0	0.260429	0.535596
     30007.75	0.12803	1763905.0	1358902.0	795463.0	0.260853	0.535508
     30008.26	0.13139	1796709.0	1384363.0	810440.0	0.260717	0.535418
     30008.78	0.11543	1581534.0	1218853.0	713295.0	0.260485	0.535770
     30009.30	0.12359	1696484.0	1307613.0	765572.0	0.260355	0.535335
     30009.82	0.13386	1835017.0	1414273.0	827806.0	0.260438	0.535592
     30010.34	0.13141	1794180.0	1382722.0	809782.0	0.260494	0.535044
     30010.86	0.13252	1811506.0	1396203.0	818123.0	0.260402	0.534499
     30011.37	0.13096	1791274.0	1380880.0	808643.0	0.260206	0.535119
     30011.89	0.12483	1712220.0	1319816.0	773211.0	0.260298	0.534696
     30012.41	0.12856	1767260.0	1362476.0	797901.0	0.260127	0.535074
     30012.93	0.11448	1570908.0	1210936.0	709483.0	0.260260	0.534612
     30013.45	0.12258	1678248.0	1293869.0	757766.0	0.260113	0.535018
     30013.96	0.12313	1695219.0	1306740.0	765742.0	0.260276	0.534445
     30014.48	0.12840	1762569.0	1358355.0	796210.0	0.260498	0.534167
     30015.00	0.12113	1662556.0	1281589.0	751276.0	0.260255	0.534083
     30015.52	0.12929	1769573.0	1364101.0	799788.0	0.260243	0.533904
     30016.04	0.12931	1768334.0	1363802.0	799243.0	0.259761	0.534367
     30016.56	0.12876	1764057.0	1360301.0	797531.0	0.259910	0.533941
     30017.07	0.12392	1690510.0	1303520.0	764570.0	0.259962	0.533510
     30017.59	0.13963	1911931.0	1474396.0	864640.0	0.259865	0.533690
     30018.11	0.11659	1594799.0	1229693.0	721133.0	0.259983	0.533696
     30018.63	0.13633	1861531.0	1435463.0	841986.0	0.259912	0.533479
     30019.15	0.13030	1777208.0	1370648.0	804140.0	0.259760	0.533266
     30019.67	0.12851	1751904.0	1351162.0	792289.0	0.259738	0.533794
     30020.18	0.12273	1673401.0	1290663.0	757048.0	0.259702	0.533485
     30020.70	0.12224	1672848.0	1290068.0	757037.0	0.259833	0.533038
     30021.22	0.13222	1805390.0	1392157.0	817303.0	0.259922	0.532600
     30021.74	0.12873	1764629.0	1360711.0	798613.0	0.259933	0.532886
     30022.26	0.11834	1622351.0	1251395.0	734458.0	0.259617	0.532881
     30022.78	0.11932	1626993.0	1254996.0	736745.0	0.259601	0.532646
     30023.30	0.12503	1702931.0	1313588.0	771047.0	0.259589	0.532768
     30023.81	0.12295	1670179.0	1288181.0	756294.0	0.259700	0.532556
     30024.33	0.11046	1501708.0	1158132.0	680252.0	0.259795	0.532100
     30024.85	0.12714	1739433.0	1341584.0	787913.0	0.259708	0.532219
     30025.37	0.14473	1979888.0	1527704.0	896980.0	0.259274	0.532488
     30025.89	0.098379	1349537.0	1041062.0	611668.0	0.259520	0.531807
     30026.41	0.097744	1332706.0	1028488.0	603998.0	0.259122	0.532274
     30026.93	0.11858	1617580.0	1247712.0	733204.0	0.259620	0.531643
     30027.44	0.11701	1593024.0	1229191.0	722394.0	0.259278	0.531541
     30027.96	0.11543	1576143.0	1216478.0	714812.0	0.259021	0.531696
     30028.48	0.13492	1828382.0	1410814.0	829212.0	0.259265	0.531446
     30029.00	0.12811	1755482.0	1354688.0	796473.0	0.259172	0.531133
     30029.52	0.13994	1910898.0	1474841.0	866755.0	0.259023	0.531549
     30030.04	0.11277	1543883.0	1191873.0	700448.0	0.258775	0.531561
     30030.56	0.12360	1685606.0	1300752.0	764573.0	0.259183	0.531380
     30031.08	0.12734	1746075.0	1347612.0	791953.0	0.259036	0.531587
     30031.60	0.12988	1775299.0	1370076.0	805402.0	0.259103	0.531280
     30032.11	0.12388	1695794.0	1309380.0	769948.0	0.258597	0.530986
     30032.63	0.14370	1966540.0	1517818.0	892662.0	0.259002	0.530821
     30033.15	0.15403	2111912.0	1630166.0	958860.0	0.258912	0.530692
     30033.67	0.13723	1883796.0	1454084.0	855228.0	0.258913	0.530763
     30034.19	0.085709	1175951.0	907776.0	533868.0	0.258835	0.530849
     30034.71	0.12761	1748112.0	1350023.0	793901.0	0.258415	0.530918
     30035.23	0.13301	1819724.0	1405395.0	826773.0	0.258366	0.530544
     30035.75	0.12537	1716522.0	1325245.0	779923.0	0.258703	0.530157
     30036.27	0.13810	1882100.0	1452817.0	855066.0	0.258884	0.530081
     30036.78	0.13754	1878038.0	1450357.0	853408.0	0.258418	0.530327
     30037.30	0.14179	1928882.0	1489765.0	877071.0	0.258322	0.529786
     30037.82	0.13269	1807478.0	1395820.0	822001.0	0.258450	0.529496
     30038.34	0.11522	1573290.0	1215280.0	715334.0	0.258194	0.529980
     30038.86	0.14124	1930968.0	1491533.0	878032.0	0.258217	0.529877
     30039.38	0.12626	1721701.0	1329759.0	782921.0	0.258315	0.529721
     30039.90	0.13382	1825864.0	1410415.0	830334.0	0.258169	0.529811
     30040.42	0.12487	1705827.0	1317889.0	776283.0	0.258019	0.529269
     30040.94	0.12713	1731744.0	1337519.0	787945.0	0.258313	0.529143
     30041.46	0.12307	1676243.0	1294844.0	763017.0	0.258165	0.528865
     30041.98	0.11838	1616306.0	1248245.0	735565.0	0.258405	0.528855
     30042.50	0.12900	1748735.0	1350815.0	795854.0	0.258185	0.529048
     30043.01	0.13179	1793787.0	1385825.0	816510.0	0.258033	0.529012
     30043.53	0.12916	1760569.0	1360155.0	801441.0	0.258038	0.528943
     30044.05	0.12386	1684630.0	1301318.0	766834.0	0.258168	0.528863
     30044.57	0.12635	1722943.0	1330965.0	784552.0	0.258130	0.528547
     30045.09	0.12042	1647829.0	1272920.0	750530.0	0.258145	0.528289
     30045.61	0.11938	1623894.0	1254312.0	739663.0	0.258240	0.528148
     30046.13	0.11725	1587203.0	1226414.0	722932.0	0.257879	0.528535
     30046.65	0.11956	1631715.0	1260434.0	743230.0	0.258176	0.528206
     30047.17	0.12949	1769216.0	1367365.0	806147.0	0.257651	0.528375
     30047.69	0.11495	1571116.0	1213981.0	715772.0	0.257881	0.528299
     30048.21	0.11935	1624149.0	1255246.0	740478.0	0.257652	0.527791
     30048.73	0.13029	1776183.0	1372989.0	809907.0	0.257477	0.527826
     30049.25	0.12254	1668512.0	1289318.0	760619.0	0.257819	0.527736
