# Diamond Light Source
# Instrument: B18-CORE XAS Date: Thu, 28 Jul 2016 02:36:13 BST
# Ring energy:   3.0
# Ring current - start: 299.6
# Primary slits:  vertical gap=  2.4; horizontal gap= 52.0; vertical offset=  0.4; horizontal offset= -1.0
# Secondary slits:  vertical gap=  3.5; horizontal gap= 23.0; vertical offset=  5.3; horizontal offset= -14.5
# OH Mirror Coating: Pt
# White beam filter: 140um PyC
# Crystal cut: Si(311)
# PostDCM slits:  vertical gap= 18.0; horizontal gap= 28.0; vertical offset= -9.1; horizontal offset= -16.5
# Experimental slits:  vertical gap= 28.6; horizontal gap= 45.0; vertical offset=  5.7; horizontal offset= -17.5
# HR Mirror : out; Y: 37.8; Pitch:  0.3; Coating: Pt
# Mirror 2: Pitch:  2.3; Height: -6.4; Yaw: -1.6; Bend:  0.8;
# I0 Stanford sensitivity: 20 nA/V Offsets: 20 pA
# It Stanford sensitivity: 100 nA/V Offsets: 1 pA
# Iref Stanford sensitivity: 20 nA/V Offsets: 1 pA
#
# Ascii output file name: 'Andrea_Sn//ascii/262929_PtSn_OCH_H2_Abu_1.dat'
# Nexus output file: '/dls/b18/data/2016/sp10306-9/Andrea_Sn//nexus/262929_PtSn_OCH_H2_Abu_1.nxs'
# XML folder and files:
# /dls/b18/data/2016/sp10306-9/xml/Andrea_Sn/
# QEXAFS_Parameters
# Sample_Parameters
# Detector_Parameters
# Output_Parameters
# The contents of these files are also stored in the nexus file.
#
# Sample name: PtSn_OCH_H2_Abu
# Sample description: default sample description
# Additional comments: default additional comments
# command: qexafs_energy 29000.0 30050.0 2094 263.53 qexafs_counterTimer01
#
#
# qexafs_energy	   time	       I0	       It	     Iref	  lnI0It	 lnItIref
     29000.24	0.13582	2183403.0	1947790.0	4027731.0	0.114189	-0.726508
     29000.73	0.18938	3043870.0	2715867.0	5616225.0	0.114018	-0.726548
     29001.21	0.10253	1647313.0	1470216.0	3040324.0	0.113736	-0.726555
     29001.69	0.092382	1485476.0	1325361.0	2740810.0	0.114050	-0.726569
     29002.18	0.12705	2042569.0	1823123.0	3769465.0	0.113657	-0.726382
     29002.66	0.13422	2155897.0	1923812.0	3979037.0	0.113898	-0.726731
     29003.14	0.12585	2023153.0	1804885.0	3731887.0	0.114160	-0.726417
     29003.63	0.13221	2111674.0	1884900.0	3897085.0	0.113606	-0.726354
     29004.11	0.12219	1962985.0	1751418.0	3621215.0	0.114041	-0.726384
     29004.59	0.12766	2049497.0	1829253.0	3782459.0	0.113687	-0.726467
     29005.08	0.12177	1957903.0	1746732.0	3612364.0	0.114127	-0.726616
     29005.56	0.12849	2060221.0	1838302.0	3801017.0	0.113971	-0.726426
     29006.05	0.13353	2137912.0	1908180.0	3944916.0	0.113680	-0.726278
     29006.53	0.11734	1882735.0	1680513.0	3475679.0	0.113626	-0.726691
     29007.01	0.12991	2086367.0	1862017.0	3850962.0	0.113764	-0.726663
     29007.50	0.12814	2062762.0	1840776.0	3807063.0	0.113859	-0.726671
     29007.98	0.11366	1828615.0	1632125.0	3375352.0	0.113676	-0.726617
     29008.46	0.13068	2100349.0	1874551.0	3876200.0	0.113734	-0.726486
     29008.95	0.11509	1846069.0	1647719.0	3407202.0	0.113667	-0.726500
     29009.43	0.11362	1828095.0	1631778.0	3374681.0	0.113604	-0.726631
     29009.92	0.12507	2015802.0	1799037.0	3720530.0	0.113766	-0.726615
     29010.40	0.11676	1881134.0	1679161.0	3472338.0	0.113581	-0.726534
     29010.88	0.12362	1992839.0	1779004.0	3678637.0	0.113507	-0.726489
     29011.37	0.13100	2114410.0	1887291.0	3902257.0	0.113633	-0.726413
     29011.85	0.12142	1955819.0	1745799.0	3609787.0	0.113597	-0.726436
     29012.34	0.13712	2208819.0	1972354.0	4078485.0	0.113230	-0.726498
     29012.82	0.12273	1980110.0	1768058.0	3655690.0	0.113271	-0.726403
     29013.30	0.14128	2281713.0	2036886.0	4211314.0	0.113504	-0.726353
     29013.79	0.12191	1970561.0	1759058.0	3637941.0	0.113540	-0.726639
     29014.27	0.12432	2001650.0	1787014.0	3695089.0	0.113426	-0.726459
     29014.76	0.12694	2048282.0	1828909.0	3782309.0	0.113282	-0.726615
     29015.24	0.12880	2074126.0	1852595.0	3830695.0	0.112953	-0.726459
     29015.72	0.12191	1968741.0	1758002.0	3635212.0	0.113216	-0.726489
     29016.21	0.12555	2027285.0	1810366.0	3742973.0	0.113168	-0.726351
     29016.69	0.11093	1790880.0	1599262.0	3307104.0	0.113165	-0.726531
     29017.18	0.13113	2114480.0	1888309.0	3905140.0	0.113127	-0.726612
     29017.66	0.13288	2141712.0	1912339.0	3955341.0	0.113278	-0.726740
     29018.14	0.11983	1931201.0	1724426.0	3565653.0	0.113248	-0.726453
     29018.63	0.13332	2145128.0	1915554.0	3961876.0	0.113192	-0.726711
     29019.11	0.13137	2111373.0	1886021.0	3900457.0	0.112869	-0.726624
     29019.60	0.13181	2124809.0	1897210.0	3924506.0	0.113298	-0.726856
     29020.08	0.13081	2109227.0	1883734.0	3895932.0	0.113066	-0.726677
     29020.57	0.12341	1989634.0	1777048.0	3675120.0	0.112997	-0.726632
     29021.05	0.12837	2062527.0	1842339.0	3809698.0	0.112896	-0.726514
     29021.53	0.12176	1960564.0	1751113.0	3621817.0	0.112981	-0.726724
     29022.02	0.13087	2108360.0	1883234.0	3894975.0	0.112920	-0.726697
     29022.50	0.13456	2168304.0	1937230.0	4006332.0	0.112686	-0.726617
     29022.99	0.13061	2105129.0	1880719.0	3890028.0	0.112723	-0.726762
     29023.47	0.14418	2323962.0	2075987.0	4293760.0	0.112837	-0.726726
     29023.96	0.10480	1687707.0	1507610.0	3118227.0	0.112845	-0.726739
     29024.44	0.11085	1784827.0	1594123.0	3296948.0	0.112998	-0.726673
     29024.92	0.12039	1937001.0	1730488.0	3579516.0	0.112737	-0.726824
     29025.41	0.11991	1931456.0	1725354.0	3568335.0	0.112842	-0.726667
     29025.89	0.12410	1998026.0	1785206.0	3692254.0	0.112626	-0.726703
     29026.38	0.11572	1865806.0	1666821.0	3447363.0	0.112775	-0.726691
     29026.86	0.11694	1883248.0	1682815.0	3480384.0	0.112530	-0.726675
     29027.35	0.11938	1919055.0	1714379.0	3545735.0	0.112782	-0.726695
     29027.83	0.10156	1633105.0	1459053.0	3017303.0	0.112696	-0.726576
     29028.32	0.11783	1901672.0	1699215.0	3514459.0	0.112567	-0.726719
     29028.80	0.11642	1875653.0	1676194.0	3466948.0	0.112431	-0.726749
     29029.28	0.12039	1944669.0	1737296.0	3593715.0	0.112762	-0.726857
     29029.77	0.13413	2159374.0	1929974.0	3991698.0	0.112312	-0.726710
     29030.25	0.13220	2134607.0	1908107.0	3947114.0	0.112171	-0.726873
     29030.74	0.14196	2292373.0	2048675.0	4238209.0	0.112394	-0.726948
     29031.22	0.10857	1745688.0	1560175.0	3227814.0	0.112351	-0.727007
     29031.71	0.11920	1921913.0	1717375.0	3552084.0	0.112524	-0.726738
     29032.19	0.12431	2002499.0	1789618.0	3701116.0	0.112394	-0.726632
     29032.68	0.14162	2282375.0	2039463.0	4219274.0	0.112530	-0.726977
     29033.16	0.12458	2003925.0	1791428.0	3706412.0	0.112095	-0.727051
     29033.65	0.14576	2348490.0	2098686.0	4341846.0	0.112461	-0.726988
     29034.13	0.15735	2535356.0	2265702.0	4687439.0	0.112449	-0.727002
     29034.62	0.12117	1955193.0	1747444.0	3614776.0	0.112335	-0.726876
     29035.10	0.097724	1574349.0	1406700.0	2910328.0	0.112595	-0.727019
     29035.58	0.13306	2139327.0	1912524.0	3956066.0	0.112067	-0.726826
     29036.07	0.12136	1954601.0	1747390.0	3614217.0	0.112063	-0.726752
     29036.55	0.13488	2171505.0	1941005.0	4014949.0	0.112215	-0.726819
     29037.04	0.12951	2089490.0	1868206.0	3864620.0	0.111941	-0.726885
     29037.52	0.14167	2281985.0	2039941.0	4219325.0	0.112125	-0.726754
     29038.01	0.14667	2360429.0	2110169.0	4365138.0	0.112075	-0.726882
     29038.49	0.13704	2207438.0	1973854.0	4083095.0	0.111845	-0.726867
     29038.98	0.12699	2046978.0	1830286.0	3785833.0	0.111892	-0.726794
     29039.46	0.13392	2158477.0	1929689.0	3991486.0	0.112044	-0.726805
     29039.95	0.12162	1956867.0	1749514.0	3618577.0	0.112007	-0.726743
     29040.43	0.12579	2022466.0	1808398.0	3740514.0	0.111876	-0.726782
     29040.92	0.12030	1937796.0	1732695.0	3584396.0	0.111873	-0.726912
     29041.40	0.12785	2057230.0	1839515.0	3805703.0	0.111858	-0.726999
     29041.89	0.12898	2075960.0	1856230.0	3838889.0	0.111876	-0.726635
     29042.37	0.11432	1838486.0	1644441.0	3401874.0	0.111542	-0.726926
     29042.86	0.12721	2046257.0	1829757.0	3784982.0	0.111829	-0.726858
     29043.34	0.12091	1946930.0	1741056.0	3601005.0	0.111762	-0.726721
     29043.83	0.13549	2181136.0	1950625.0	4035029.0	0.111696	-0.726864
     29044.31	0.12495	2011339.0	1798690.0	3720506.0	0.111742	-0.726801
     29044.80	0.12217	1962663.0	1755439.0	3630338.0	0.111583	-0.726607
     29045.28	0.12842	2067721.0	1849168.0	3824164.0	0.111711	-0.726604
     29045.77	0.11092	1785546.0	1596890.0	3302804.0	0.111666	-0.726714
     29046.25	0.11532	1856378.0	1660169.0	3434304.0	0.111708	-0.726895
     29046.74	0.12193	1960319.0	1753073.0	3625647.0	0.111737	-0.726663
     29047.22	0.12009	1931546.0	1727571.0	3573033.0	0.111604	-0.726698
     29047.71	0.12514	2011118.0	1799386.0	3720772.0	0.111245	-0.726486
     29048.19	0.13499	2170246.0	1941234.0	4014580.0	0.111517	-0.726609
     29048.68	0.11275	1813900.0	1622573.0	3355623.0	0.111466	-0.726624
     29049.16	0.12416	1998874.0	1787873.0	3697281.0	0.111557	-0.726571
     29049.65	0.12386	1992934.0	1782625.0	3687160.0	0.111521	-0.726770
     29050.13	0.13560	2177621.0	1947851.0	4029202.0	0.111506	-0.726842
     29050.62	0.12481	2002502.0	1791157.0	3704025.0	0.111536	-0.726558
     29051.10	0.13195	2119233.0	1895835.0	3920015.0	0.111395	-0.726436
     29051.59	0.12320	1970623.0	1762857.0	3645755.0	0.111414	-0.726628
     29052.08	0.12440	2000699.0	1789287.0	3700525.0	0.111679	-0.726657
     29052.56	0.13011	2090662.0	1870508.0	3868551.0	0.111271	-0.726670
     29053.05	0.11925	1910896.0	1709447.0	3534979.0	0.111402	-0.726537
     29053.53	0.12781	2055006.0	1838367.0	3801509.0	0.111401	-0.726520
     29054.02	0.12800	2058333.0	1841543.0	3807067.0	0.111293	-0.726255
     29054.50	0.12315	1968893.0	1761678.0	3643249.0	0.111205	-0.726609
     29054.99	0.12725	2039588.0	1825177.0	3773238.0	0.111071	-0.726257
     29055.47	0.12357	1978473.0	1770249.0	3659928.0	0.111205	-0.726323
     29055.96	0.13545	2165561.0	1937710.0	4004954.0	0.111173	-0.726025
     29056.44	0.12627	2018368.0	1805827.0	3733799.0	0.111271	-0.726408
     29056.93	0.13523	2166818.0	1938539.0	4008696.0	0.111325	-0.726531
     29057.41	0.11120	1783040.0	1595663.0	3298667.0	0.111030	-0.726229
     29057.90	0.13777	2210214.0	1978278.0	4089777.0	0.110863	-0.726264
     29058.39	0.13619	2186883.0	1957066.0	4046850.0	0.111031	-0.726492
     29058.87	0.12693	2039059.0	1824787.0	3772586.0	0.111025	-0.726297
     29059.36	0.12720	2038088.0	1824500.0	3772191.0	0.110706	-0.726350
     29059.84	0.12411	1989206.0	1780412.0	3681448.0	0.110891	-0.726461
     29060.33	0.13041	2081192.0	1863042.0	3851696.0	0.110730	-0.726303
     29060.81	0.10630	1687622.0	1510090.0	3122869.0	0.111151	-0.726583
     29061.30	0.12857	2061929.0	1845619.0	3815832.0	0.110827	-0.726344
     29061.78	0.11999	1920858.0	1719238.0	3554189.0	0.110891	-0.726246
     29062.27	0.12572	2011781.0	1800918.0	3722259.0	0.110724	-0.726034
     29062.76	0.12173	1947529.0	1743390.0	3604311.0	0.110730	-0.726299
     29063.24	0.12925	2068428.0	1851590.0	3827470.0	0.110744	-0.726159
     29063.73	0.12711	2035019.0	1821500.0	3765870.0	0.110845	-0.726319
     29064.21	0.14095	2258046.0	2021405.0	4178679.0	0.110707	-0.726202
     29064.70	0.098897	1584509.0	1418671.0	2932590.0	0.110554	-0.726165
     29065.18	0.11249	1803286.0	1614724.0	3337592.0	0.110447	-0.726086
     29065.67	0.078197	1255864.0	1124136.0	2323285.0	0.110809	-0.725967
     29066.16	0.12196	1954020.0	1749188.0	3615157.0	0.110737	-0.725984
     29066.64	0.12771	2036441.0	1823475.0	3769280.0	0.110460	-0.726140
     29067.13	0.12861	2058084.0	1842345.0	3808389.0	0.110736	-0.726167
     29067.61	0.15395	2464938.0	2207224.0	4561363.0	0.110431	-0.725886
     29068.10	0.13952	2227232.0	1994476.0	4122006.0	0.110378	-0.725959
     29068.59	0.076805	1228356.0	1099925.0	2272952.0	0.110435	-0.725837
     29069.07	0.13366	2134749.0	1910969.0	3949183.0	0.110739	-0.725898
     29069.56	0.12084	1932535.0	1730401.0	3576157.0	0.110479	-0.725936
     29070.04	0.13884	2209319.0	1978641.0	4089130.0	0.110274	-0.725922
     29070.53	0.12028	1924629.0	1723680.0	3562188.0	0.110272	-0.725913
     29071.01	0.15123	2415992.0	2163339.0	4471216.0	0.110457	-0.726008
     29071.50	0.18522	2965362.0	2655787.0	5487617.0	0.110258	-0.725753
     29071.99	0.089357	1430732.0	1281263.0	2647858.0	0.110340	-0.725905
     29072.47	0.096977	1547127.0	1385664.0	2863484.0	0.110220	-0.725860
     29072.96	0.12845	2056874.0	1842086.0	3806901.0	0.110289	-0.725917
     29073.44	0.12832	2046749.0	1833133.0	3788257.0	0.110226	-0.725879
     29073.93	0.12597	2013010.0	1802736.0	3724878.0	0.110326	-0.725729
     29074.42	0.13964	2230744.0	1998057.0	4127830.0	0.110160	-0.725577
     29074.90	0.13669	2189171.0	1960726.0	4051261.0	0.110208	-0.725713
     29075.39	0.16494	2630856.0	2356836.0	4868450.0	0.109989	-0.725456
     29075.87	0.13047	2081905.0	1864718.0	3851216.0	0.110174	-0.725279
     29076.36	0.10645	1702405.0	1524733.0	3148948.0	0.110223	-0.725249
     29076.85	0.12677	2022414.0	1811752.0	3742266.0	0.109998	-0.725397
     29077.33	0.13082	2082478.0	1865569.0	3852634.0	0.109992	-0.725191
     29077.82	0.12999	2078847.0	1861831.0	3845175.0	0.110253	-0.725259
     29078.31	0.13234	2117747.0	1897365.0	3917442.0	0.109887	-0.724973
     29078.79	0.12417	1982057.0	1775624.0	3666763.0	0.109983	-0.725157
     29079.28	0.14564	2332293.0	2089093.0	4313134.0	0.110122	-0.724935
     29079.76	0.10753	1718756.0	1539499.0	3178878.0	0.110144	-0.725071
     29080.25	0.12787	2042854.0	1830287.0	3778497.0	0.109875	-0.724854
     29080.74	0.11926	1905877.0	1707590.0	3524572.0	0.109859	-0.724676
     29081.22	0.12970	2075761.0	1859291.0	3838435.0	0.110133	-0.724869
     29081.71	0.12007	1913704.0	1714484.0	3539341.0	0.109928	-0.724828
     29082.20	0.12466	1993579.0	1786305.0	3687715.0	0.109782	-0.724858
     29082.68	0.13137	2096826.0	1878754.0	3877459.0	0.109816	-0.724571
     29083.17	0.11508	1836919.0	1645733.0	3396998.0	0.109904	-0.724706
     29083.65	0.12742	2038966.0	1827230.0	3770368.0	0.109642	-0.724371
     29084.14	0.11486	1833426.0	1643227.0	3390187.0	0.109524	-0.724223
     29084.63	0.12198	1949184.0	1746414.0	3603634.0	0.109846	-0.724378
     29085.11	0.12321	1963613.0	1759743.0	3630932.0	0.109618	-0.724322
     29085.60	0.13143	2094883.0	1877058.0	3872469.0	0.109792	-0.724187
     29086.09	0.11306	1808481.0	1621206.0	3343878.0	0.109317	-0.723961
     29086.57	0.12070	1930634.0	1730299.0	3569945.0	0.109554	-0.724256
     29087.06	0.13717	2190951.0	1963717.0	4051348.0	0.109497	-0.724211
     29087.55	0.11630	1852522.0	1660228.0	3423532.0	0.109593	-0.723718
     29088.03	0.13093	2091964.0	1875274.0	3868065.0	0.109349	-0.724000
     29088.52	0.13143	2097482.0	1879598.0	3876982.0	0.109680	-0.723999
     29089.01	0.12880	2058872.0	1845459.0	3805413.0	0.109430	-0.723696
     29089.49	0.13403	2140539.0	1918244.0	3956094.0	0.109647	-0.723847
     29089.98	0.12254	1955684.0	1752970.0	3614561.0	0.109429	-0.723659
     29090.47	0.12359	1967776.0	1763526.0	3636127.0	0.109589	-0.723604
     29090.95	0.12514	1991499.0	1785332.0	3680785.0	0.109283	-0.723522
     29091.44	0.12311	1968878.0	1764748.0	3637624.0	0.109456	-0.723323
     29091.93	0.12152	1933007.0	1733207.0	3572049.0	0.109103	-0.723166
     29092.41	0.12431	1981834.0	1776665.0	3661976.0	0.109285	-0.723265
     29092.90	0.13132	2085064.0	1869076.0	3851830.0	0.109355	-0.723104
     29093.39	0.12769	2031797.0	1821245.0	3753194.0	0.109400	-0.723087
     29093.87	0.13682	2180694.0	1955007.0	4028760.0	0.109249	-0.723065
     29094.36	0.12321	1964151.0	1761403.0	3628591.0	0.108949	-0.722734
     29094.85	0.13840	2201071.0	1973196.0	4064532.0	0.109289	-0.722644
     29095.33	0.11734	1869326.0	1676064.0	3452468.0	0.109130	-0.722641
     29095.82	0.13138	2092008.0	1875677.0	3863501.0	0.109155	-0.722604
     29096.31	0.12765	2034546.0	1824675.0	3757599.0	0.108871	-0.722378
     29096.79	0.13707	2186228.0	1960558.0	4037484.0	0.108949	-0.722393
     29097.28	0.12061	1923844.0	1724953.0	3550915.0	0.109125	-0.722006
     29097.77	0.14577	2318820.0	2079374.0	4281015.0	0.108992	-0.722123
     29098.25	0.10950	1737572.0	1558155.0	3207633.0	0.108986	-0.722031
     29098.74	0.12973	2066682.0	1853890.0	3815621.0	0.108658	-0.721817
     29099.23	0.10890	1739424.0	1560001.0	3211084.0	0.108868	-0.721922
     29099.71	0.12656	2018431.0	1810253.0	3725389.0	0.108854	-0.721705
     29100.20	0.12455	1983565.0	1778989.0	3661166.0	0.108851	-0.721736
     29100.69	0.11932	1900922.0	1704829.0	3508021.0	0.108874	-0.721587
     29101.17	0.13284	2112124.0	1894504.0	3898349.0	0.108737	-0.721596
     29101.66	0.11975	1905803.0	1709098.0	3515958.0	0.108938	-0.721346
     29102.15	0.12429	1977034.0	1772581.0	3646351.0	0.109161	-0.721290
     29102.64	0.098527	1566892.0	1405388.0	2890545.0	0.108781	-0.721132
     29103.12	0.11130	1765568.0	1583596.0	3256954.0	0.108774	-0.721094
     29103.61	0.11491	1820296.0	1632164.0	3356218.0	0.109092	-0.720908
     29104.10	0.11435	1812609.0	1625446.0	3341749.0	0.108985	-0.720712
     29104.58	0.12004	1901452.0	1705347.0	3505392.0	0.108849	-0.720534
     29105.07	0.12114	1917870.0	1719900.0	3534974.0	0.108949	-0.720440
     29105.56	0.12839	2037181.0	1826962.0	3754726.0	0.108913	-0.720361
     29106.04	0.12911	2043845.0	1833355.0	3766746.0	0.108685	-0.720064
     29106.53	0.10491	1663532.0	1491961.0	3064564.0	0.108852	-0.719814
     29107.02	0.12559	1989878.0	1784805.0	3666879.0	0.108764	-0.720032
     29107.51	0.13051	2065154.0	1852444.0	3805183.0	0.108699	-0.719858
     29107.99	0.12435	1978793.0	1774792.0	3644988.0	0.108804	-0.719670
     29108.48	0.14398	2287673.0	2052291.0	4213091.0	0.108578	-0.719240
     29108.97	0.13589	2159691.0	1937609.0	3977781.0	0.108510	-0.719269
     29109.46	0.12995	2064380.0	1851507.0	3800837.0	0.108830	-0.719221
     29109.94	0.13330	2117158.0	1899285.0	3897755.0	0.108597	-0.718923
     29110.43	0.11998	1903546.0	1708023.0	3503877.0	0.108382	-0.718534
     29110.92	0.13133	2087769.0	1873257.0	3842784.0	0.108417	-0.718518
     29111.40	0.11764	1871881.0	1679334.0	3444498.0	0.108547	-0.718381
     29111.89	0.13531	2150721.0	1929672.0	3956733.0	0.108453	-0.718069
     29112.38	0.13048	2073622.0	1860449.0	3814479.0	0.108479	-0.717986
     29112.87	0.12652	2007342.0	1800884.0	3691674.0	0.108534	-0.717802
     29113.35	0.15222	2414209.0	2166079.0	4438537.0	0.108453	-0.717406
     29113.84	0.15260	2425038.0	2175453.0	4457810.0	0.108610	-0.717421
     29114.33	0.12137	1923189.0	1725329.0	3534293.0	0.108567	-0.717096
     29114.82	0.12896	2045086.0	1835156.0	3759114.0	0.108310	-0.717054
     29115.30	0.12306	1953747.0	1752702.0	3589220.0	0.108590	-0.716776
     29115.79	0.14218	2257378.0	2025961.0	4147371.0	0.108160	-0.716430
     29116.28	0.12896	2048648.0	1838639.0	3763344.0	0.108154	-0.716282
     29116.77	0.12261	1951522.0	1751002.0	3583282.0	0.108421	-0.716091
     29117.25	0.12531	1994269.0	1789050.0	3659475.0	0.108593	-0.715635
     29117.74	0.12338	1956237.0	1755194.0	3590146.0	0.108443	-0.715613
     29118.23	0.12126	1926746.0	1729058.0	3536186.0	0.108256	-0.715472
     29118.72	0.12499	1981053.0	1777744.0	3633477.0	0.108283	-0.714845
     29119.20	0.12021	1909917.0	1714079.0	3503501.0	0.108184	-0.714887
     29119.69	0.12838	2033701.0	1825333.0	3729580.0	0.108095	-0.714533
     29120.18	0.13099	2080329.0	1866796.0	3812514.0	0.108302	-0.714065
     29120.67	0.13324	2107720.0	1891444.0	3862901.0	0.108266	-0.714078
     29121.15	0.11622	1848330.0	1658570.0	3386197.0	0.108327	-0.713752
     29121.64	0.12790	2030785.0	1822849.0	3720601.0	0.108022	-0.713485
     29122.13	0.11687	1858988.0	1668711.0	3404583.0	0.107981	-0.713071
     29122.62	0.12438	1976212.0	1774102.0	3619583.0	0.107888	-0.713064
     29123.10	0.12088	1917726.0	1721267.0	3510485.0	0.108079	-0.712694
     29123.59	0.11635	1847423.0	1658275.0	3380812.0	0.108014	-0.712338
     29124.08	0.12950	2057800.0	1847322.0	3764995.0	0.107900	-0.712010
     29124.57	0.11583	1836645.0	1648712.0	3360041.0	0.107946	-0.711959
     29125.06	0.12249	1932152.0	1734345.0	3533049.0	0.108005	-0.711531
     29125.54	0.11664	1842462.0	1653784.0	3366946.0	0.108037	-0.710940
     29126.03	0.12515	1982600.0	1779590.0	3622887.0	0.108026	-0.710888
     29126.52	0.12483	1980198.0	1777345.0	3617043.0	0.108076	-0.710536
     29127.01	0.12505	1983108.0	1779616.0	3620646.0	0.108268	-0.710255
     29127.49	0.13006	2061562.0	1850891.0	3763940.0	0.107797	-0.709799
     29127.98	0.13504	2141325.0	1922132.0	3907147.0	0.107990	-0.709372
     29128.47	0.13086	2072195.0	1860619.0	3781258.0	0.107699	-0.709148
     29128.96	0.12079	1916479.0	1720086.0	3493796.0	0.108115	-0.708615
     29129.45	0.12769	2021633.0	1814816.0	3685192.0	0.107922	-0.708339
     29129.93	0.12381	1965044.0	1763871.0	3580669.0	0.108004	-0.708039
     29130.42	0.12247	1937634.0	1739233.0	3528939.0	0.108023	-0.707553
     29130.91	0.11598	1834536.0	1646788.0	3340299.0	0.107965	-0.707234
     29131.40	0.12439	1970270.0	1769135.0	3586652.0	0.107680	-0.706728
     29131.89	0.13479	2135444.0	1917435.0	3886684.0	0.107686	-0.706568
     29132.37	0.12871	2037601.0	1829199.0	3705841.0	0.107895	-0.706032
     29132.86	0.12180	1926135.0	1729289.0	3501227.0	0.107805	-0.705403
     29133.35	0.12770	2024126.0	1817086.0	3677905.0	0.107904	-0.705109
     29133.84	0.12605	1999205.0	1794686.0	3631245.0	0.107920	-0.704745
     29134.33	0.13708	2174358.0	1951991.0	3947173.0	0.107884	-0.704150
     29134.81	0.12233	1934265.0	1736964.0	3510561.0	0.107589	-0.703637
     29135.30	0.13006	2061860.0	1850814.0	3739224.0	0.107983	-0.703253
     29135.79	0.12992	2047688.0	1838288.0	3711963.0	0.107877	-0.702726
     29136.28	0.12981	2031056.0	1823577.0	3680250.0	0.107756	-0.702181
     29136.77	0.12741	2008685.0	1803338.0	3636857.0	0.107841	-0.701480
     29137.25	0.12981	2051182.0	1841792.0	3712699.0	0.107677	-0.701020
     29137.74	0.12176	1926560.0	1730005.0	3485533.0	0.107612	-0.700497
     29138.23	0.12570	1988983.0	1785680.0	3595943.0	0.107824	-0.700007
     29138.72	0.12372	1957917.0	1758167.0	3538505.0	0.107609	-0.699433
     29139.21	0.12495	1979437.0	1776923.0	3574923.0	0.107929	-0.699060
     29139.70	0.11454	1814069.0	1629069.0	3274799.0	0.107564	-0.698248
     29140.18	0.13533	2138335.0	1920216.0	3857548.0	0.107590	-0.697594
     29140.67	0.11733	1857737.0	1667916.0	3349297.0	0.107784	-0.697176
     29141.16	0.13140	2076240.0	1864306.0	3740126.0	0.107670	-0.696230
     29141.65	0.11932	1883997.0	1691516.0	3392270.0	0.107770	-0.695874
     29142.14	0.11719	1857319.0	1667771.0	3342312.0	0.107646	-0.695175
     29142.63	0.10966	1735431.0	1558055.0	3119955.0	0.107818	-0.694380
     29143.11	0.11666	1844556.0	1656088.0	3314615.0	0.107780	-0.693883
     29143.60	0.10985	1735440.0	1558343.0	3115919.0	0.107638	-0.692901
     29144.09	0.11951	1887909.0	1695372.0	3387279.0	0.107568	-0.692125
     29144.58	0.12789	2018363.0	1811884.0	3618555.0	0.107920	-0.691708
     29145.07	0.10450	1654359.0	1485548.0	2963649.0	0.107630	-0.690638
     29145.56	0.12344	1949912.0	1751023.0	3490927.0	0.107584	-0.689967
     29146.04	0.13652	2162098.0	1941012.0	3865636.0	0.107870	-0.688917
     29146.53	0.12397	1955276.0	1755282.0	3493833.0	0.107902	-0.688370
     29147.02	0.11656	1844945.0	1656484.0	3294841.0	0.107752	-0.687661
     29147.51	0.13317	2108971.0	1893746.0	3762060.0	0.107643	-0.686410
     29148.00	0.13212	2079903.0	1866812.0	3706889.0	0.108089	-0.685961
     29148.49	0.12457	1958716.0	1758434.0	3487016.0	0.107866	-0.684623
     29148.98	0.13703	2169797.0	1948221.0	3859923.0	0.107717	-0.683731
     29149.46	0.13451	2126218.0	1909070.0	3778771.0	0.107729	-0.682783
     29149.95	0.14936	2359531.0	2118598.0	4189287.0	0.107708	-0.681776
     29150.44	0.10107	1597457.0	1434263.0	2832493.0	0.107762	-0.680506
     29150.93	0.12700	2002762.0	1797908.0	3546222.0	0.107903	-0.679259
     29151.42	0.12228	1932133.0	1734339.0	3418209.0	0.107998	-0.678490
     29151.91	0.13426	2119724.0	1903091.0	3745677.0	0.107806	-0.677123
     29152.40	0.12476	1968297.0	1766803.0	3473000.0	0.107997	-0.675847
     29152.88	0.13959	2198004.0	1973315.0	3874571.0	0.107835	-0.674720
     29153.37	0.14415	2275927.0	2042963.0	4006576.0	0.107986	-0.673536
     29153.86	0.14681	2314819.0	2078004.0	4070576.0	0.107924	-0.672377
     29154.35	0.10849	1709480.0	1534633.0	3001000.0	0.107898	-0.670654
     29154.84	0.12262	1932622.0	1734559.0	3387884.0	0.108124	-0.669452
     29155.33	0.12977	2047280.0	1837211.0	3582586.0	0.108263	-0.667836
     29155.82	0.13216	2083411.0	1869979.0	3641187.0	0.108079	-0.666383
     29156.31	0.13009	2053344.0	1842702.0	3582915.0	0.108237	-0.664944
     29156.79	0.13404	2113864.0	1897142.0	3682072.0	0.108169	-0.663127
     29157.28	0.12093	1904320.0	1708463.0	3311280.0	0.108531	-0.661741
     29157.77	0.14469	2285878.0	2051381.0	3967488.0	0.108237	-0.659620
     29158.26	0.11689	1846635.0	1656878.0	3199983.0	0.108430	-0.658210
     29158.75	0.12054	1903887.0	1707954.0	3291928.0	0.108601	-0.656177
     29159.24	0.12379	1953366.0	1752579.0	3370341.0	0.108466	-0.653926
     29159.73	0.13284	2092983.0	1877765.0	3603959.0	0.108508	-0.651951
     29160.22	0.12498	1972289.0	1769079.0	3388822.0	0.108736	-0.650023
     29160.71	0.12981	2046272.0	1835355.0	3508053.0	0.108782	-0.647823
     29161.19	0.12763	2015870.0	1808416.0	3447669.0	0.108600	-0.645247
     29161.68	0.11948	1885727.0	1691600.0	3217765.0	0.108639	-0.643012
     29162.17	0.12980	2043799.0	1833075.0	3478335.0	0.108815	-0.640559
     29162.66	0.12071	1899996.0	1704454.0	3225596.0	0.108607	-0.637873
     29163.15	0.12191	1921353.0	1722949.0	3251202.0	0.108992	-0.634987
     29163.64	0.12124	1912394.0	1714458.0	3224797.0	0.109259	-0.631773
     29164.13	0.11631	1836451.0	1646447.0	3088156.0	0.109215	-0.628955
     29164.62	0.12169	1920538.0	1721397.0	3219223.0	0.109469	-0.626004
     29165.11	0.12182	1918129.0	1719869.0	3204778.0	0.109102	-0.622395
     29165.60	0.11740	1853871.0	1662080.0	3086462.0	0.109206	-0.618956
     29166.09	0.12326	1946882.0	1744797.0	3227859.0	0.109591	-0.615181
     29166.57	0.12385	1951936.0	1749195.0	3222612.0	0.109666	-0.611037
     29167.06	0.12785	2012359.0	1803053.0	3308233.0	0.109826	-0.606933
     29167.55	0.13771	2161178.0	1936541.0	3536301.0	0.109750	-0.602178
     29168.04	0.13438	2110476.0	1890557.0	3436913.0	0.110042	-0.597702
     29168.53	0.13067	2060669.0	1845386.0	3337353.0	0.110342	-0.592490
     29169.02	0.13047	2058210.0	1842977.0	3316267.0	0.110454	-0.587458
     29169.51	0.11717	1847767.0	1654401.0	2959884.0	0.110539	-0.581711
     29170.00	0.11845	1861810.0	1667028.0	2964918.0	0.110507	-0.575807
     29170.49	0.11959	1883615.0	1685916.0	2978076.0	0.110884	-0.568968
     29170.98	0.13299	2092228.0	1872489.0	3284231.0	0.110961	-0.561864
     29171.47	0.12214	1927806.0	1725086.0	3003904.0	0.111106	-0.554636
     29171.96	0.13506	2128290.0	1903452.0	3288398.0	0.111650	-0.546731
     29172.45	0.12202	1919058.0	1715934.0	2938034.0	0.111877	-0.537783
     29172.94	0.13204	2078719.0	1858172.0	3150828.0	0.112159	-0.528072
     29173.42	0.12406	1955200.0	1747672.0	2935640.0	0.112208	-0.518641
     29173.91	0.12518	1968109.0	1758019.0	2919699.0	0.112886	-0.507293
     29174.40	0.13714	2157810.0	1927219.0	3166214.0	0.113016	-0.496459
     29174.89	0.12189	1920647.0	1714866.0	2779338.0	0.113327	-0.482878
     29175.38	0.13152	2073508.0	1850522.0	2956337.0	0.113774	-0.468483
     29175.87	0.13149	2069622.0	1846382.0	2903687.0	0.114138	-0.452753
     29176.36	0.12467	1962702.0	1749558.0	2704663.0	0.114959	-0.435614
     29176.85	0.14271	2243808.0	1998929.0	3030345.0	0.115563	-0.416065
     29177.34	0.10867	1711372.0	1523604.0	2263388.0	0.116217	-0.395784
     29177.83	0.12624	1985189.0	1766602.0	2564301.0	0.116656	-0.372628
     29178.32	0.12313	1937607.0	1723009.0	2437065.0	0.117382	-0.346722
     29178.81	0.12185	1916426.0	1702219.0	2343701.0	0.118529	-0.319799
     29179.30	0.12207	1916906.0	1701013.0	2268189.0	0.119488	-0.287758
     29179.79	0.13507	2125743.0	1885222.0	2421789.0	0.120076	-0.250461
     29180.28	0.12466	1960039.0	1736177.0	2142688.0	0.121279	-0.210376
     29180.77	0.11147	1755923.0	1552936.0	1832058.0	0.122847	-0.165293
     29181.26	0.10764	1694481.0	1496876.0	1680887.0	0.123996	-0.115941
     29181.75	0.11091	1744368.0	1538092.0	1631126.0	0.125850	-0.0587279
     29182.24	0.12331	1936201.0	1703590.0	1701025.0	0.127990	0.00150678
     29182.73	0.10989	1728367.0	1517353.0	1414800.0	0.130210	0.0699792
     29183.22	0.11877	1869411.0	1638166.0	1425392.0	0.132046	0.139130
     29183.71	0.11379	1782500.0	1558050.0	1260186.0	0.134582	0.212176
     29184.20	0.13209	2068850.0	1803661.0	1345644.0	0.137174	0.292946
     29184.68	0.10584	1647627.0	1432480.0	991959.0	0.139929	0.367481
     29185.17	0.12768	2003515.0	1737245.0	1110520.0	0.142603	0.447472
     29185.66	0.12779	2003369.0	1731911.0	1024551.0	0.145605	0.524971
     29186.15	0.11641	1820149.0	1569197.0	868028.0	0.148354	0.592095
     29186.64	0.13568	2128185.0	1829847.0	945710.0	0.151037	0.660052
     29187.13	0.14535	2278286.0	1952860.0	949159.0	0.154128	0.721474
     29187.62	0.12301	1935604.0	1654645.0	763587.0	0.156833	0.773315
     29188.11	0.13497	2123037.0	1810155.0	801436.0	0.159435	0.814763
     29188.60	0.12088	1901391.0	1617637.0	694990.0	0.161619	0.844824
     29189.09	0.12845	2019509.0	1714219.0	719031.0	0.163897	0.868808
     29189.58	0.13114	2061092.0	1746055.0	721934.0	0.165877	0.883181
     29190.07	0.12190	1914579.0	1618697.0	664704.0	0.167876	0.890035
     29190.56	0.12845	2017545.0	1702554.0	699830.0	0.169752	0.889047
     29191.05	0.13372	2101306.0	1770285.0	732349.0	0.171419	0.882639
     29191.54	0.13627	2101645.0	1769168.0	739788.0	0.172211	0.871901
     29192.03	0.13323	2064429.0	1735829.0	735136.0	0.173369	0.859185
     29192.52	0.12006	1870218.0	1571458.0	675685.0	0.174051	0.844032
     29193.01	0.13660	2134222.0	1793073.0	784453.0	0.174171	0.826700
     29193.50	0.13799	2159489.0	1813603.0	806549.0	0.174556	0.810306
     29193.99	0.13342	2087907.0	1753790.0	793326.0	0.174383	0.793300
     29194.48	0.13468	2108744.0	1772088.0	814957.0	0.173934	0.776778
     29194.97	0.13329	2090483.0	1757477.0	820259.0	0.173516	0.762014
     29195.46	0.12265	1926049.0	1620207.0	766622.0	0.172917	0.748315
     29195.95	0.12893	2022444.0	1703031.0	815961.0	0.171897	0.735798
     29196.44	0.12333	1931068.0	1627638.0	789468.0	0.170943	0.723526
     29196.93	0.12173	1908936.0	1610335.0	788888.0	0.170104	0.713573
     29197.42	0.13138	2060773.0	1741020.0	860709.0	0.168610	0.704470
     29197.92	0.11761	1827193.0	1545297.0	770000.0	0.167565	0.696581
     29198.41	0.12970	2014503.0	1705490.0	855116.0	0.166520	0.690371
     29198.90	0.12936	2017286.0	1710022.0	862171.0	0.165247	0.684808
     29199.39	0.13128	2054211.0	1743455.0	883137.0	0.164023	0.680144
     29199.88	0.11743	1836550.0	1560352.0	793204.0	0.162977	0.676586
     29200.37	0.12244	1920503.0	1632759.0	832474.0	0.162316	0.673625
     29200.86	0.12103	1893259.0	1611150.0	823159.0	0.161351	0.671554
     29201.35	0.12704	1988801.0	1693542.0	866138.0	0.160710	0.670533
     29201.84	0.11924	1865261.0	1589887.0	813129.0	0.159738	0.670528
     29202.33	0.11885	1863488.0	1589002.0	812211.0	0.159344	0.671101
     29202.82	0.12567	1969086.0	1680259.0	858097.0	0.158622	0.671986
     29203.31	0.13398	2091919.0	1786106.0	910891.0	0.158044	0.673370
     29203.80	0.11365	1773232.0	1514730.0	770337.0	0.157567	0.676164
     29204.29	0.12986	2036909.0	1740711.0	882911.0	0.157140	0.678825
     29204.78	0.12185	1910626.0	1634050.0	826193.0	0.156369	0.681988
     29205.27	0.12078	1894366.0	1619991.0	816775.0	0.156464	0.684812
     29205.76	0.13026	2038717.0	1744046.0	876679.0	0.156113	0.687822
     29206.25	0.13340	2082077.0	1782035.0	892548.0	0.155610	0.691431
     29206.74	0.12852	2009181.0	1719295.0	858316.0	0.155813	0.694697
     29207.23	0.12765	1997526.0	1710091.0	851211.0	0.155363	0.697642
     29207.72	0.12193	1908133.0	1633820.0	811296.0	0.155204	0.700043
     29208.21	0.12916	2017684.0	1727199.0	855456.0	0.155449	0.702622
     29208.70	0.12268	1919465.0	1643010.0	812491.0	0.155517	0.704180
     29209.19	0.12483	1944374.0	1664359.0	821272.0	0.155500	0.706341
     29209.69	0.12334	1927963.0	1649940.0	813170.0	0.155725	0.707554
     29210.18	0.12141	1895374.0	1622045.0	798917.0	0.155728	0.708186
     29210.67	0.12228	1907889.0	1632780.0	803443.0	0.155713	0.709133
     29211.16	0.12943	2024651.0	1732430.0	852489.0	0.155872	0.709120
     29211.65	0.13032	2038911.0	1744498.0	858460.0	0.155949	0.709082
     29212.14	0.11952	1869031.0	1598644.0	787281.0	0.156264	0.708326
     29212.63	0.13847	2166459.0	1852746.0	913203.0	0.156425	0.707466
     29213.12	0.12682	1982592.0	1695395.0	837055.0	0.156489	0.705781
     29213.61	0.12835	1997080.0	1707523.0	845093.0	0.156642	0.703352
     29214.10	0.13884	2166850.0	1852600.0	919024.0	0.156684	0.701033
     29214.59	0.12958	2017662.0	1724118.0	858243.0	0.157224	0.697584
     29215.08	0.12751	1990143.0	1700730.0	849146.0	0.157149	0.694582
     29215.57	0.13309	2077738.0	1775221.0	890376.0	0.157355	0.690036
     29216.06	0.11884	1856396.0	1585655.0	798548.0	0.157639	0.685958
     29216.56	0.11401	1785366.0	1524420.0	771383.0	0.158009	0.681184
     29217.05	0.12903	2013410.0	1719677.0	874187.0	0.157693	0.676597
     29217.54	0.12487	1945612.0	1661481.0	848797.0	0.157867	0.671645
     29218.03	0.12514	1953057.0	1667399.0	855098.0	0.158131	0.667804
     29218.52	0.12920	2012872.0	1718220.0	884742.0	0.158274	0.663748
     29219.01	0.12591	1968353.0	1680494.0	868049.0	0.158109	0.660595
     29219.50	0.13656	2133930.0	1821313.0	943739.0	0.158408	0.657463
     29219.99	0.10652	1664897.0	1421140.0	737731.0	0.158304	0.655635
     29220.48	0.10743	1678861.0	1433318.0	745050.0	0.158124	0.654296
     29220.97	0.10714	1672545.0	1427839.0	742845.0	0.158184	0.653430
     29221.47	0.11737	1832925.0	1564925.0	813784.0	0.158075	0.653898
     29221.96	0.11067	1729996.0	1477586.0	767658.0	0.157709	0.654821
     29222.45	0.12462	1943846.0	1659613.0	860519.0	0.158084	0.656804
     29222.94	0.11910	1856590.0	1585646.0	820429.0	0.157750	0.658920
     29223.43	0.11840	1847626.0	1578388.0	813897.0	0.157497	0.662326
     29223.92	0.11782	1841188.0	1572938.0	808463.0	0.157466	0.665566
     29224.41	0.11764	1838033.0	1570611.0	804741.0	0.157231	0.668700
     29224.90	0.12487	1946651.0	1663226.0	849049.0	0.157351	0.672397
     29225.39	0.13716	2141196.0	1830563.0	930632.0	0.156741	0.676515
     29225.89	0.12616	1970964.0	1685407.0	853325.0	0.156516	0.680622
     29226.38	0.14416	2249446.0	1923601.0	970150.0	0.156485	0.684504
     29226.87	0.13442	2094887.0	1791912.0	899607.0	0.156216	0.689080
     29227.36	0.18059	2814289.0	2407959.0	1204733.0	0.155930	0.692522
     29227.85	0.080644	1260555.0	1078659.0	537489.0	0.155833	0.696566
     29228.34	0.12509	1951849.0	1670168.0	828754.0	0.155853	0.700756
     29228.83	0.12114	1890368.0	1617812.0	799463.0	0.155697	0.704890
     29229.32	0.12318	1914880.0	1639021.0	807087.0	0.155556	0.708423
     29229.81	0.13109	2046122.0	1751761.0	859232.0	0.155325	0.712338
     29230.31	0.13699	2133686.0	1826250.0	892128.0	0.155586	0.716410
     29230.80	0.13086	2040021.0	1746640.0	849950.0	0.155266	0.720272
     29231.29	0.15541	2423184.0	2074848.0	1005954.0	0.155194	0.723952
     29231.78	0.10619	1658725.0	1420284.0	685759.0	0.155192	0.728086
     29232.27	0.12293	1919243.0	1643238.0	790207.0	0.155262	0.732129
     29232.76	0.13690	2133547.0	1826514.0	875307.0	0.155377	0.735590
     29233.25	0.14155	2208624.0	1890641.0	902823.0	0.155454	0.739145
     29233.75	0.12994	2022259.0	1731186.0	823898.0	0.155408	0.742515
     29234.24	0.13410	2090313.0	1789337.0	849045.0	0.155469	0.745488
     29234.73	0.16306	2544139.0	2178017.0	1030371.0	0.155377	0.748496
     29235.22	0.13117	2047311.0	1752216.0	827262.0	0.155646	0.750515
     29235.71	0.086353	1346427.0	1152251.0	542977.0	0.155737	0.752406
     29236.20	0.11281	1760040.0	1506331.0	708870.0	0.155660	0.753760
     29236.69	0.12728	1980747.0	1694934.0	796800.0	0.155830	0.754795
     29237.19	0.12360	1925509.0	1647812.0	774283.0	0.155742	0.755266
     29237.68	0.12945	2016785.0	1725080.0	810646.0	0.156231	0.755197
     29238.17	0.12672	1973685.0	1688607.0	794104.0	0.155998	0.754445
     29238.66	0.15566	2425329.0	2074480.0	976679.0	0.156257	0.753308
     29239.15	0.10476	1631770.0	1395895.0	658049.0	0.156130	0.752012
     29239.64	0.11598	1805628.0	1544520.0	729973.0	0.156195	0.749461
     29240.14	0.11328	1766884.0	1511056.0	715916.0	0.156409	0.747001
     29240.63	0.11895	1853874.0	1585857.0	753171.0	0.156153	0.744588
     29241.12	0.12958	2012442.0	1721703.0	820360.0	0.156035	0.741326
     29241.61	0.12483	1944589.0	1663088.0	794935.0	0.156375	0.738171
     29242.10	0.11060	1719601.0	1470693.0	705646.0	0.156359	0.734375
     29242.59	0.12985	2007983.0	1717845.0	827599.0	0.156060	0.730297
     29243.09	0.11333	1764353.0	1508771.0	729392.0	0.156489	0.726839
     29243.58	0.13204	2050848.0	1754213.0	851882.0	0.156233	0.722328
     29244.07	0.11040	1714186.0	1466390.0	714562.0	0.156135	0.718889
     29244.56	0.12559	1954823.0	1671824.0	818556.0	0.156384	0.714129
     29245.05	0.13977	2173881.0	1859302.0	913399.0	0.156313	0.710784
     29245.55	0.12847	2001117.0	1711223.0	843911.0	0.156497	0.706917
     29246.04	0.12750	1979953.0	1693331.0	839198.0	0.156376	0.702006
     29246.53	0.13179	2049202.0	1752494.0	871490.0	0.156411	0.698591
     29247.02	0.12508	1936230.0	1655852.0	827023.0	0.156427	0.694238
     29247.51	0.12494	1944509.0	1662626.0	833130.0	0.156611	0.690964
     29248.00	0.11990	1860639.0	1590864.0	799860.0	0.156643	0.687596
     29248.50	0.12034	1870695.0	1598979.0	806278.0	0.156945	0.684692
     29248.99	0.12732	1976540.0	1689257.0	854330.0	0.157059	0.681727
     29249.48	0.13110	2032500.0	1737166.0	881076.0	0.157012	0.678866
     29249.97	0.11794	1834529.0	1567665.0	796872.0	0.157201	0.676648
     29250.46	0.14312	2217166.0	1894220.0	964905.0	0.157423	0.674533
     29250.96	0.11909	1847105.0	1577995.0	805499.0	0.157464	0.672448
     29251.45	0.12148	1883698.0	1609101.0	822616.0	0.157561	0.670941
     29251.94	0.13565	2110785.0	1803334.0	922930.0	0.157423	0.669839
     29252.43	0.12457	1935822.0	1653072.0	846971.0	0.157897	0.668724
     29252.92	0.13003	2021881.0	1726422.0	884918.0	0.157977	0.668311
     29253.42	0.12374	1923112.0	1642107.0	842812.0	0.157965	0.666992
     29253.91	0.14995	2328666.0	1988361.0	1019982.0	0.157985	0.667526
     29254.40	0.11750	1827268.0	1560108.0	799958.0	0.158067	0.667951
     29254.89	0.12789	1989023.0	1698527.0	870730.0	0.157882	0.668185
     29255.39	0.11771	1829828.0	1562124.0	800582.0	0.158176	0.668463
     29255.88	0.12377	1923849.0	1642971.0	841199.0	0.157822	0.669433
     29256.37	0.12272	1904591.0	1625963.0	831808.0	0.158167	0.670254
     29256.86	0.12906	2004144.0	1711286.0	874140.0	0.157972	0.671760
     29257.35	0.12451	1927926.0	1646122.0	839407.0	0.158023	0.673482
     29257.85	0.15637	2425175.0	2070837.0	1054223.0	0.157951	0.675149
     29258.34	0.14072	2185427.0	1866295.0	948314.0	0.157856	0.677025
     29258.83	0.10204	1579937.0	1349544.0	684517.0	0.157618	0.678809
     29259.32	0.11206	1740288.0	1486344.0	751877.0	0.157731	0.681502
     29259.82	0.090190	1399740.0	1195648.0	603459.0	0.157598	0.683765
     29260.31	0.10448	1620971.0	1384924.0	696816.0	0.157380	0.686879
     29260.80	0.13543	2100709.0	1794765.0	900948.0	0.157401	0.689182
     29261.29	0.15992	2475296.0	2114906.0	1058102.0	0.157350	0.692534
     29261.79	0.14378	2224455.0	1900930.0	948923.0	0.157169	0.694771
     29262.28	0.092028	1427061.0	1220251.0	606719.0	0.156561	0.698746
     29262.77	0.076785	1191581.0	1018714.0	504817.0	0.156740	0.702100
     29263.26	0.12070	1862849.0	1593008.0	786816.0	0.156483	0.705385
     29263.75	0.11117	1718328.0	1469786.0	723153.0	0.156235	0.709251
     29264.25	0.13503	2089007.0	1787084.0	876717.0	0.156104	0.712156
     29264.74	0.13685	2111552.0	1806782.0	883044.0	0.155876	0.715928
     29265.23	0.14995	2318728.0	1984521.0	967180.0	0.155641	0.718748
     29265.72	0.12330	1907141.0	1632140.0	792861.0	0.155713	0.721999
     29266.22	0.13458	2082864.0	1782977.0	863349.0	0.155459	0.725221
     29266.71	0.10091	1561036.0	1336548.0	645471.0	0.155260	0.727865
     29267.20	0.12892	1993686.0	1707233.0	821948.0	0.155111	0.730952
     29267.70	0.12580	1942341.0	1663214.0	798831.0	0.155142	0.733358
     29268.19	0.13261	2050244.0	1756092.0	841356.0	0.154868	0.735831
     29268.68	0.13203	2040862.0	1748229.0	836187.0	0.154769	0.737506
     29269.17	0.12830	1982430.0	1698213.0	810729.0	0.154747	0.739398
     29269.67	0.13759	2125397.0	1821023.0	868048.0	0.154560	0.740907
     29270.16	0.13713	2122975.0	1819150.0	866019.0	0.154449	0.742218
     29270.65	0.12371	1912710.0	1638853.0	779568.0	0.154524	0.743012
     29271.14	0.13257	2049522.0	1756276.0	835034.0	0.154411	0.743478
     29271.64	0.14304	2209579.0	1893280.0	899853.0	0.154491	0.743835
     29272.13	0.12393	1914378.0	1640433.0	779371.0	0.154433	0.744228
     29272.62	0.13300	2056671.0	1762995.0	838093.0	0.154075	0.743640
     29273.11	0.12672	1958467.0	1678612.0	798296.0	0.154195	0.743243
     29273.61	0.13238	2042680.0	1750721.0	833566.0	0.154235	0.742070
     29274.10	0.12682	1958753.0	1679318.0	800448.0	0.153920	0.740971
     29274.59	0.12756	1972369.0	1690889.0	806666.0	0.153981	0.740100
     29275.09	0.12750	1971567.0	1690114.0	807387.0	0.154033	0.738748
     29275.58	0.12781	1976525.0	1694454.0	810461.0	0.153980	0.737513
     29276.07	0.12008	1855931.0	1590934.0	762504.0	0.154065	0.735469
     29276.56	0.12828	1977116.0	1695124.0	813992.0	0.153883	0.733561
     29277.06	0.13122	2027721.0	1738429.0	836118.0	0.153931	0.731967
     29277.55	0.11873	1825642.0	1565030.0	754117.0	0.154027	0.730113
     29278.04	0.12553	1941316.0	1664565.0	803637.0	0.153802	0.728171
     29278.54	0.12449	1922325.0	1648168.0	797087.0	0.153871	0.726456
     29279.03	0.12895	1993805.0	1709484.0	828592.0	0.153853	0.724219
     29279.52	0.12034	1855046.0	1590397.0	772591.0	0.153926	0.721989
     29280.02	0.11129	1718930.0	1473783.0	717070.0	0.153869	0.720414
     29280.51	0.11769	1818379.0	1559001.0	760117.0	0.153900	0.718328
     29281.00	0.13404	2072722.0	1777341.0	868294.0	0.153744	0.716343
     29281.49	0.11411	1767865.0	1515717.0	742039.0	0.153884	0.714242
     29281.99	0.11613	1798207.0	1541646.0	755478.0	0.153939	0.713255
     29282.48	0.12789	1971700.0	1690656.0	830574.0	0.153779	0.710755
     29282.97	0.13115	2026255.0	1737957.0	854554.0	0.153479	0.709886
     29283.47	0.13169	2032422.0	1742876.0	858376.0	0.153692	0.708250
     29283.96	0.12311	1901086.0	1630600.0	804233.0	0.153477	0.706814
     29284.45	0.16541	2548445.0	2185663.0	1079509.0	0.153564	0.705413
     29284.95	0.11717	1805202.0	1548320.0	765612.0	0.153502	0.704250
     29285.44	0.11500	1775120.0	1522181.0	753573.0	0.153724	0.703074
     29285.93	0.11522	1780363.0	1527024.0	756536.0	0.153497	0.702326
     29286.43	0.11449	1756297.0	1506619.0	747371.0	0.153340	0.701062
     29286.92	0.12624	1950987.0	1672975.0	830366.0	0.153732	0.700492
     29287.41	0.13029	2007256.0	1721522.0	855227.0	0.153560	0.699597
     29287.91	0.13344	2063319.0	1770090.0	879873.0	0.153285	0.699008
     29288.40	0.14285	2199164.0	1886340.0	938201.0	0.153439	0.698430
     29288.89	0.10711	1650812.0	1416049.0	704696.0	0.153397	0.697859
     29289.39	0.11917	1840387.0	1578788.0	786060.0	0.153318	0.697380
     29289.88	0.13081	2020689.0	1733258.0	863577.0	0.153436	0.696675
     29290.37	0.12819	1973334.0	1692640.0	843345.0	0.153435	0.696669
     29290.87	0.12974	1993512.0	1710019.0	852188.0	0.153393	0.696453
     29291.36	0.13230	2040203.0	1750411.0	872088.0	0.153199	0.696716
     29291.85	0.13693	2115221.0	1814281.0	904463.0	0.153470	0.696103
     29292.35	0.13799	2131827.0	1828880.0	911595.0	0.153276	0.696263
     29292.84	0.10916	1679875.0	1440835.0	718497.0	0.153497	0.695817
     29293.33	0.12568	1941372.0	1665230.0	829972.0	0.153432	0.696327
     29293.83	0.11906	1835097.0	1573896.0	784360.0	0.153543	0.696441
     29294.32	0.12969	1999085.0	1715258.0	854546.0	0.153126	0.696748
     29294.81	0.12413	1915278.0	1642840.0	818438.0	0.153436	0.696784
     29295.31	0.13155	2026831.0	1738755.0	865807.0	0.153304	0.697263
     29295.80	0.13757	2115512.0	1814793.0	903437.0	0.153325	0.697520
     29296.29	0.10432	1610036.0	1381360.0	687328.0	0.153188	0.698012
     29296.79	0.10715	1646527.0	1412703.0	702320.0	0.153163	0.698871
     29297.28	0.11875	1829529.0	1569830.0	780158.0	0.153091	0.699226
     29297.77	0.10750	1653397.0	1418100.0	704273.0	0.153514	0.699907
     29298.27	0.12472	1919921.0	1646715.0	817585.0	0.153502	0.700183
     29298.76	0.12029	1851093.0	1587940.0	788155.0	0.153339	0.700498
     29299.26	0.14302	2200368.0	1887472.0	935904.0	0.153386	0.701481
     29299.75	0.15855	2436431.0	2089981.0	1035414.0	0.153379	0.702354
     29300.24	0.10180	1563102.0	1341055.0	664005.0	0.153216	0.702922
     29300.74	0.077578	1193503.0	1023825.0	506173.0	0.153347	0.704422
     29301.23	0.10965	1687371.0	1447345.0	715595.0	0.153441	0.704372
     29301.72	0.12016	1845212.0	1582941.0	781834.0	0.153310	0.705397
     29302.22	0.13110	2015844.0	1729366.0	853076.0	0.153283	0.706662
     29302.71	0.16507	2528680.0	2169045.0	1069242.0	0.153410	0.707337
     29303.21	0.11002	1687245.0	1447535.0	713112.0	0.153235	0.707979
     29303.70	0.14607	2241807.0	1922971.0	946222.0	0.153411	0.709149
     29304.19	0.10222	1567500.0	1344635.0	661122.0	0.153359	0.709939
     29304.69	0.13113	2006956.0	1721346.0	846021.0	0.153513	0.710318
     29305.18	0.13130	2015953.0	1729438.0	848990.0	0.153296	0.711504
     29305.67	0.12732	1951267.0	1674147.0	820776.0	0.153175	0.712809
     29306.17	0.12737	1952778.0	1675517.0	821127.0	0.153131	0.713199
     29306.66	0.13356	2048681.0	1757451.0	860801.0	0.153332	0.713756
     29307.16	0.17347	2661990.0	2283867.0	1117547.0	0.153204	0.714734
     29307.65	0.11983	1837110.0	1575844.0	770911.0	0.153403	0.714973
     29308.14	0.10125	1542430.0	1323304.0	646718.0	0.153227	0.715977
     29308.64	0.12873	1973852.0	1693484.0	826753.0	0.153199	0.717037
     29309.13	0.13408	2051616.0	1760373.0	859282.0	0.153102	0.717184
     29309.63	0.12984	1989582.0	1706997.0	832584.0	0.153189	0.717957
     29310.12	0.13477	2058950.0	1766647.0	861621.0	0.153113	0.718023
     29310.61	0.13932	2136400.0	1833022.0	893560.0	0.153156	0.718508
     29311.11	0.13581	2082837.0	1786757.0	870422.0	0.153329	0.719179
     29311.60	0.12581	1930337.0	1656024.0	806465.0	0.153275	0.719514
     29312.10	0.12184	1870006.0	1604317.0	780992.0	0.153244	0.719888
     29312.59	0.12141	1863517.0	1598667.0	778051.0	0.153295	0.720133
     29313.08	0.12657	1945678.0	1669689.0	812324.0	0.152973	0.720493
     29313.58	0.12130	1867500.0	1602088.0	779317.0	0.153293	0.720645
     29314.07	0.12443	1914773.0	1642806.0	799225.0	0.153193	0.720519
     29314.57	0.13529	2077944.0	1782785.0	866905.0	0.153202	0.721003
     29315.06	0.13131	2015770.0	1729770.0	841131.0	0.153013	0.720996
     29315.56	0.11671	1792502.0	1538137.0	747755.0	0.153040	0.721252
     29316.05	0.12528	1922044.0	1649328.0	801530.0	0.153021	0.721601
     29316.54	0.11747	1805498.0	1549194.0	753170.0	0.153102	0.721199
     29317.04	0.12752	1963075.0	1684260.0	818745.0	0.153186	0.721309
     29317.53	0.11705	1799080.0	1543498.0	750124.0	0.153224	0.721568
     29318.03	0.12763	1962619.0	1683713.0	818323.0	0.153278	0.721500
     29318.52	0.11068	1695967.0	1455533.0	707925.0	0.152881	0.720789
     29319.02	0.13888	2133154.0	1830647.0	890044.0	0.152932	0.721154
     29319.51	0.11677	1796102.0	1541129.0	749456.0	0.153103	0.720923
     29320.00	0.11925	1827432.0	1568605.0	762633.0	0.152725	0.721165
     29320.50	0.11983	1838489.0	1577585.0	767596.0	0.153049	0.720387
     29320.99	0.10937	1680018.0	1440899.0	701126.0	0.153537	0.720335
     29321.49	0.14269	2183288.0	1873113.0	911635.0	0.153230	0.720117
     29321.98	0.13150	2021127.0	1733810.0	844077.0	0.153334	0.719833
     29322.48	0.13056	2009098.0	1723596.0	839122.0	0.153273	0.719812
     29322.97	0.12642	1942559.0	1666722.0	811896.0	0.153147	0.719242
     29323.47	0.12879	1976552.0	1696000.0	826704.0	0.153081	0.718581
     29323.96	0.12220	1874417.0	1608222.0	783789.0	0.153168	0.718745
     29324.45	0.12991	1982298.0	1700636.0	829899.0	0.153254	0.717454
     29324.95	0.11829	1804588.0	1548547.0	755686.0	0.153015	0.717446
     29325.44	0.13189	2013335.0	1727040.0	843089.0	0.153384	0.717092
     29325.94	0.12462	1908861.0	1637937.0	800124.0	0.153069	0.716426
     29326.43	0.13009	1996100.0	1712457.0	836859.0	0.153266	0.716029
     29326.93	0.12546	1926269.0	1652856.0	808245.0	0.153080	0.715395
     29327.42	0.11271	1728794.0	1483156.0	725573.0	0.153252	0.714966
     29327.92	0.12804	1959766.0	1681366.0	823293.0	0.153219	0.714050
     29328.41	0.13425	2057027.0	1765035.0	864015.0	0.153091	0.714336
     29328.91	0.13105	2008363.0	1723734.0	844402.0	0.152827	0.713619
     29329.40	0.13097	2005334.0	1720824.0	843702.0	0.153007	0.712759
     29329.89	0.13398	2042453.0	1753334.0	859989.0	0.152632	0.712355
     29330.39	0.13282	2031269.0	1743384.0	855663.0	0.152833	0.711707
     29330.88	0.13070	2002929.0	1719502.0	844540.0	0.152576	0.710998
     29331.38	0.12417	1902230.0	1633195.0	802095.0	0.152489	0.711066
     29331.87	0.10925	1668966.0	1433024.0	704310.0	0.152417	0.710324
     29332.37	0.12960	1983821.0	1703245.0	837723.0	0.152490	0.709603
     29332.86	0.12203	1870810.0	1606253.0	790136.0	0.152467	0.709454
     29333.36	0.12397	1898412.0	1630265.0	802125.0	0.152275	0.709233
     29333.85	0.12660	1939198.0	1665272.0	819967.0	0.152286	0.708480
     29334.35	0.12936	1983662.0	1703475.0	839017.0	0.152274	0.708195
     29334.84	0.11330	1735275.0	1490323.0	734472.0	0.152173	0.707596
     29335.34	0.12394	1876845.0	1611815.0	794369.0	0.152231	0.707568
     29335.83	0.11451	1732258.0	1487903.0	733764.0	0.152058	0.706936
     29336.33	0.11388	1727596.0	1483840.0	731902.0	0.152098	0.706742
     29336.82	0.12167	1852520.0	1591876.0	785622.0	0.151634	0.706193
     29337.32	0.11146	1700869.0	1461055.0	721195.0	0.151981	0.706004
     29337.81	0.12161	1859406.0	1597374.0	788571.0	0.151896	0.705894
     29338.31	0.11733	1797610.0	1544586.0	762898.0	0.151702	0.705387
     29338.80	0.11317	1734091.0	1489996.0	735903.0	0.151710	0.705430
     29339.30	0.14126	2165275.0	1860465.0	919300.0	0.151721	0.704969
     29339.79	0.10101	1548413.0	1330693.0	657545.0	0.151531	0.704942
     29340.29	0.12209	1864927.0	1602885.0	792622.0	0.151417	0.704214
     29340.78	0.12316	1884515.0	1619660.0	800920.0	0.151454	0.704210
     29341.28	0.14136	2160060.0	1856352.0	918478.0	0.151523	0.703651
     29341.77	0.12753	1945919.0	1672534.0	827596.0	0.151395	0.703570
     29342.27	0.15325	2339546.0	2010918.0	995540.0	0.151366	0.703061
     29342.76	0.14117	2149978.0	1848702.0	915013.0	0.150974	0.703301
     29343.26	0.11017	1676795.0	1441480.0	713578.0	0.151214	0.703134
     29343.75	0.095640	1453813.0	1250206.0	619094.0	0.150881	0.702806
     29344.25	0.14604	2231560.0	1918472.0	949836.0	0.151172	0.702995
     29344.74	0.12445	1896655.0	1631101.0	807845.0	0.150837	0.702640
     29345.24	0.12807	1958455.0	1684063.0	834075.0	0.150947	0.702641
     29345.73	0.12306	1881357.0	1617933.0	801153.0	0.150844	0.702853
     29346.23	0.13355	2043343.0	1756996.0	870168.0	0.150982	0.702675
     29346.72	0.14573	2221505.0	1910810.0	946502.0	0.150658	0.702509
     29347.22	0.12423	1893102.0	1628919.0	806681.0	0.150300	0.702744
     29347.72	0.13545	2065452.0	1776287.0	879571.0	0.150824	0.702846
     29348.21	0.12457	1905508.0	1639015.0	811421.0	0.150653	0.703064
     29348.71	0.14278	2172791.0	1868890.0	925489.0	0.150668	0.702778
     29349.20	0.12793	1953670.0	1680290.0	831851.0	0.150743	0.703068
     29349.70	0.13517	2059934.0	1772347.0	877307.0	0.150369	0.703203
     29350.19	0.13762	2102242.0	1808066.0	895020.0	0.150747	0.703167
     29350.69	0.13796	2110090.0	1815008.0	898276.0	0.150641	0.703368
     29351.18	0.10756	1645632.0	1415165.0	700297.0	0.150878	0.703497
     29351.68	0.13232	2025348.0	1742417.0	862187.0	0.150468	0.703556
     29352.17	0.13115	2002712.0	1723604.0	852671.0	0.150085	0.703799
     29352.67	0.11745	1791362.0	1541201.0	762381.0	0.150414	0.703871
     29353.16	0.12665	1932334.0	1662576.0	822396.0	0.150360	0.703901
     29353.66	0.12648	1932156.0	1662093.0	821789.0	0.150559	0.704349
     29354.16	0.12922	1969479.0	1695145.0	838190.0	0.150001	0.704279
     29354.65	0.13464	2053004.0	1766620.0	873185.0	0.150236	0.704676
     29355.15	0.11584	1760941.0	1515164.0	749360.0	0.150325	0.704059
     29355.64	0.12245	1868532.0	1607589.0	794380.0	0.150418	0.704929
     29356.14	0.12590	1908572.0	1642030.0	811052.0	0.150422	0.705356
     29356.63	0.11837	1810272.0	1557801.0	769280.0	0.150202	0.705575
     29357.13	0.12608	1922852.0	1654690.0	816890.0	0.150196	0.705865
     29357.63	0.12604	1921622.0	1653637.0	816313.0	0.150193	0.705935
     29358.12	0.12181	1856520.0	1597737.0	788585.0	0.150116	0.706103
     29358.62	0.11956	1823724.0	1569218.0	774354.0	0.150303	0.706304
     29359.11	0.11769	1798449.0	1547578.0	763466.0	0.150233	0.706578
     29359.61	0.12186	1861411.0	1601807.0	789746.0	0.150202	0.707176
     29360.10	0.12704	1941909.0	1671733.0	824131.0	0.149811	0.707287
     29360.60	0.10993	1669387.0	1436926.0	708224.0	0.149950	0.707501
     29361.09	0.12853	1949677.0	1678017.0	826920.0	0.150051	0.707660
     29361.59	0.12788	1947984.0	1677003.0	826465.0	0.149787	0.707606
     29362.09	0.12960	1975243.0	1700157.0	837831.0	0.149971	0.707659
     29362.58	0.13781	2100355.0	1808276.0	890595.0	0.149732	0.708239
     29363.08	0.12551	1916164.0	1649701.0	812259.0	0.149731	0.708530
     29363.57	0.11964	1821440.0	1567958.0	772207.0	0.149853	0.708277
     29364.07	0.13282	2021048.0	1739722.0	856795.0	0.149891	0.708282
     29364.57	0.13292	2026735.0	1744769.0	858794.0	0.149804	0.708848
     29365.06	0.11257	1714766.0	1476479.0	726683.0	0.149616	0.708925
     29365.56	0.12807	1956356.0	1684436.0	829005.0	0.149653	0.708960
     29366.05	0.12825	1958891.0	1686877.0	830086.0	0.149500	0.709105
     29366.55	0.12307	1879846.0	1619227.0	796619.0	0.149241	0.709328
     29367.05	0.12912	1967171.0	1693789.0	833547.0	0.149628	0.709033
     29367.54	0.12412	1893520.0	1630829.0	802631.0	0.149349	0.708949
     29368.04	0.12163	1848983.0	1592911.0	783718.0	0.149073	0.709269
     29368.53	0.13344	2033634.0	1752096.0	862349.0	0.149012	0.708908
     29369.03	0.13269	2021226.0	1741038.0	856669.0	0.149223	0.709185
     29369.53	0.12436	1888616.0	1626800.0	800741.0	0.149229	0.708833
     29370.02	0.13409	2046778.0	1762612.0	868025.0	0.149470	0.708332
     29370.52	0.12822	1952508.0	1681730.0	827759.0	0.149292	0.708856
     29371.01	0.12972	1974337.0	1700452.0	837390.0	0.149339	0.708359
     29371.51	0.12673	1928949.0	1661401.0	818372.0	0.149314	0.708100
     29372.01	0.12403	1891166.0	1629205.0	802356.0	0.149101	0.708295
     29372.50	0.12564	1914497.0	1649069.0	812441.0	0.149244	0.707923
     29373.00	0.12334	1880396.0	1619668.0	798185.0	0.149261	0.707636
     29373.49	0.12090	1832175.0	1578414.0	778014.0	0.149083	0.707431
     29373.99	0.13225	1999809.0	1722457.0	849322.0	0.149300	0.707069
     29374.49	0.12241	1855090.0	1597659.0	787962.0	0.149394	0.706845
     29374.98	0.12501	1898411.0	1635405.0	807024.0	0.149127	0.706292
     29375.48	0.12032	1827355.0	1574502.0	776934.0	0.148931	0.706339
     29375.98	0.13224	2006758.0	1728755.0	853130.0	0.149119	0.706245
     29376.47	0.11305	1722661.0	1483983.0	733176.0	0.149140	0.705099
     29376.97	0.11142	1695508.0	1460834.0	721789.0	0.148975	0.705030
     29377.46	0.11592	1756865.0	1513535.0	748002.0	0.149083	0.704798
     29377.96	0.12583	1908053.0	1643522.0	812495.0	0.149242	0.704487
     29378.46	0.12161	1850506.0	1593694.0	788601.0	0.149405	0.703549
     29378.95	0.12802	1947964.0	1677923.0	830085.0	0.149228	0.703784
     29379.45	0.10390	1580506.0	1361605.0	673933.0	0.149081	0.703289
     29379.95	0.10856	1641953.0	1414982.0	700780.0	0.148770	0.702678
     29380.44	0.12150	1847356.0	1591331.0	788709.0	0.149185	0.701929
     29380.94	0.11618	1760490.0	1516523.0	751952.0	0.149172	0.701503
     29381.44	0.13201	2003836.0	1726270.0	855964.0	0.149100	0.701490
     29381.93	0.12947	1966341.0	1693942.0	840163.0	0.149116	0.701218
     29382.43	0.13126	1988035.0	1713009.0	850041.0	0.148895	0.700722
     29382.93	0.14391	2181901.0	1879983.0	933651.0	0.148934	0.699915
     29383.42	0.12188	1846766.0	1590777.0	790323.0	0.149213	0.699536
     29383.92	0.097137	1477041.0	1272239.0	632652.0	0.149262	0.698613
     29384.41	0.14672	2231833.0	1922941.0	956395.0	0.148967	0.698440
     29384.91	0.12474	1880052.0	1619364.0	805872.0	0.149266	0.697864
     29385.41	0.12796	1933529.0	1666057.0	829456.0	0.148887	0.697445
     29385.90	0.13726	2081182.0	1792858.0	893232.0	0.149125	0.696720
     29386.40	0.13438	2036010.0	1754089.0	874250.0	0.149042	0.696339
     29386.90	0.12899	1952720.0	1682655.0	838764.0	0.148850	0.696199
     29387.39	0.11959	1811060.0	1560404.0	778525.0	0.148968	0.695299
     29387.89	0.13065	1967514.0	1695585.0	846393.0	0.148743	0.694799
     29388.39	0.13742	2075036.0	1788014.0	892737.0	0.148873	0.694569
     29388.88	0.12947	1948400.0	1678792.0	838685.0	0.148934	0.693995
     29389.38	0.13940	2115512.0	1823216.0	911272.0	0.148695	0.693516
     29389.88	0.13430	2038742.0	1756884.0	878850.0	0.148791	0.692683
     29390.37	0.14058	2131440.0	1837030.0	918856.0	0.148648	0.692776
     29390.87	0.13161	1992301.0	1717015.0	859197.0	0.148703	0.692344
     29391.37	0.14604	2212241.0	1906815.0	955151.0	0.148572	0.691320
     29391.87	0.10809	1625363.0	1401075.0	701605.0	0.148491	0.691625
     29392.36	0.12764	1936893.0	1669567.0	836475.0	0.148521	0.691123
     29392.86	0.12422	1878506.0	1619060.0	811268.0	0.148631	0.691003
     29393.36	0.12912	1954686.0	1684999.0	844921.0	0.148465	0.690277
     29393.85	0.12255	1855817.0	1599822.0	802582.0	0.148433	0.689814
     29394.35	0.12919	1952078.0	1683171.0	844459.0	0.148215	0.689739
     29394.85	0.12104	1828275.0	1575994.0	791385.0	0.148487	0.688857
     29395.34	0.13497	2042866.0	1761232.0	884696.0	0.148340	0.688525
     29395.84	0.11930	1810295.0	1560345.0	783755.0	0.148583	0.688566
     29396.34	0.12371	1876336.0	1617907.0	812991.0	0.148188	0.688169
     29396.83	0.12423	1883205.0	1623917.0	816184.0	0.148134	0.687957
     29397.33	0.12303	1864318.0	1607440.0	808334.0	0.148252	0.687423
     29397.83	0.12294	1851000.0	1595948.0	803174.0	0.148258	0.686652
     29398.33	0.13125	1957802.0	1688542.0	849428.0	0.147957	0.687058
     29398.82	0.11939	1792623.0	1545606.0	777707.0	0.148264	0.686821
     29399.32	0.12773	1915001.0	1652071.0	831430.0	0.147688	0.686638
     29399.82	0.10703	1606119.0	1385186.0	697481.0	0.147986	0.686114
     29400.31	0.12134	1798894.0	1551400.0	781115.0	0.148014	0.686191
     29400.81	0.12770	1894382.0	1633738.0	823198.0	0.148022	0.685429
     29401.31	0.11668	1747925.0	1507840.0	759691.0	0.147751	0.685522
     29401.80	0.11765	1769588.0	1526541.0	769015.0	0.147742	0.685649
     29402.30	0.12381	1865332.0	1608932.0	810633.0	0.147868	0.685510
     29402.80	0.13621	2057774.0	1774998.0	894709.0	0.147826	0.685056
     29403.30	0.13273	2002979.0	1727662.0	870614.0	0.147867	0.685326
     29403.79	0.12858	1939916.0	1673450.0	843355.0	0.147757	0.685255
     29404.29	0.12389	1877289.0	1619966.0	816486.0	0.147424	0.685151
     29404.79	0.12954	1957543.0	1689051.0	851874.0	0.147523	0.684483
     29405.29	0.11910	1795665.0	1549280.0	781348.0	0.147585	0.684525
     29405.78	0.12352	1861127.0	1605869.0	809486.0	0.147517	0.685021
     29406.28	0.13376	2017828.0	1741358.0	877827.0	0.147356	0.684971
     29406.78	0.12108	1827720.0	1577100.0	795250.0	0.147482	0.684686
     29407.27	0.12346	1865275.0	1609504.0	811585.0	0.147482	0.684692
     29407.77	0.12044	1812976.0	1564555.0	788890.0	0.147368	0.684730
     29408.27	0.12484	1865690.0	1610416.0	811957.0	0.147138	0.684800
     29408.77	0.13272	2003731.0	1728884.0	871487.0	0.147535	0.685030
     29409.26	0.12646	1902903.0	1642260.0	827834.0	0.147307	0.685016
     29409.76	0.12667	1908668.0	1647395.0	830387.0	0.147210	0.685059
     29410.26	0.13587	2054307.0	1772783.0	893473.0	0.147388	0.685190
     29410.76	0.12586	1896285.0	1636691.0	825299.0	0.147220	0.684686
     29411.25	0.13765	2075382.0	1791739.0	903123.0	0.146959	0.685083
     29411.75	0.12720	1921113.0	1658670.0	835889.0	0.146889	0.685276
     29412.25	0.12823	1924619.0	1661434.0	837364.0	0.147047	0.685178
     29412.75	0.11917	1787597.0	1543809.0	777914.0	0.146620	0.685392
     29413.24	0.13297	1988124.0	1716682.0	865230.0	0.146798	0.685153
     29413.74	0.12341	1855650.0	1602745.0	807278.0	0.146517	0.685805
     29414.24	0.12413	1855878.0	1602746.0	807412.0	0.146639	0.685640
     29414.74	0.12850	1929331.0	1665866.0	839003.0	0.146828	0.685886
     29415.23	0.14123	2129662.0	1839113.0	926328.0	0.146680	0.685810
     29415.73	0.13112	1979804.0	1709889.0	861188.0	0.146569	0.685871
     29416.23	0.11177	1683657.0	1454095.0	732226.0	0.146584	0.686050
     29416.73	0.11466	1727613.0	1492266.0	751031.0	0.146445	0.686604
     29417.22	0.12319	1856224.0	1603170.0	807130.0	0.146561	0.686253
     29417.72	0.11865	1775807.0	1534021.0	772411.0	0.146363	0.686131
     29418.22	0.11353	1712529.0	1479363.0	744627.0	0.146360	0.686483
     29418.72	0.12052	1806157.0	1559980.0	784713.0	0.146528	0.687110
     29419.22	0.11664	1754009.0	1515176.0	762382.0	0.146372	0.686839
     29419.71	0.12251	1834678.0	1585196.0	797401.0	0.146161	0.687106
     29420.21	0.10268	1545894.0	1335820.0	671745.0	0.146057	0.687422
     29420.71	0.11300	1701386.0	1469834.0	738968.0	0.146294	0.687650
     29421.21	0.11397	1704955.0	1473464.0	740927.0	0.145923	0.687469
     29421.70	0.13383	2002311.0	1730191.0	870126.0	0.146070	0.687349
     29422.20	0.12211	1834138.0	1585044.0	796886.0	0.145962	0.687656
     29422.70	0.11850	1784672.0	1542267.0	775648.0	0.145981	0.687310
     29423.20	0.13572	2047902.0	1770143.0	889744.0	0.145756	0.687882
     29423.70	0.14850	2242216.0	1937467.0	974246.0	0.146083	0.687473
     29424.19	0.11592	1747344.0	1510351.0	759708.0	0.145755	0.687163
     29424.69	0.11286	1701351.0	1470531.0	739120.0	0.145799	0.687919
     29425.19	0.13584	2037498.0	1760802.0	885714.0	0.145953	0.687131
     29425.69	0.12485	1872622.0	1619301.0	813804.0	0.145345	0.688030
     29426.19	0.13461	2029342.0	1753317.0	881041.0	0.146202	0.688161
     29426.68	0.13060	1970746.0	1704313.0	856818.0	0.145250	0.687692
     29427.18	0.13256	2000677.0	1729844.0	869631.0	0.145454	0.687718
     29427.68	0.13671	2037696.0	1761627.0	885674.0	0.145582	0.687644
     29428.18	0.11662	1736005.0	1500838.0	754248.0	0.145563	0.688058
     29428.68	0.12984	1947500.0	1683421.0	846171.0	0.145718	0.687862
     29429.17	0.13245	1987248.0	1718296.0	864014.0	0.145418	0.687499
     29429.67	0.12867	1932917.0	1671598.0	840515.0	0.145250	0.687521
     29430.17	0.13276	1987007.0	1718374.0	864250.0	0.145251	0.687272
     29430.67	0.13817	2069551.0	1789546.0	900302.0	0.145370	0.686987
     29431.17	0.12929	1942112.0	1679496.0	844593.0	0.145282	0.687394
     29431.66	0.13638	2047922.0	1770942.0	890950.0	0.145314	0.686979
     29432.16	0.12166	1831835.0	1584254.0	796961.0	0.145205	0.687063
     29432.66	0.13885	2083224.0	1801672.0	906372.0	0.145202	0.687021
     29433.16	0.11375	1685338.0	1457684.0	733823.0	0.145117	0.686336
     29433.66	0.14013	2081784.0	1800819.0	906105.0	0.144984	0.686842
     29434.16	0.12179	1819300.0	1573252.0	792070.0	0.145307	0.686250
     29434.65	0.13143	1963160.0	1697693.0	855052.0	0.145285	0.685863
     29435.15	0.12468	1864763.0	1613126.0	812318.0	0.144960	0.686037
     29435.65	0.12168	1826512.0	1579816.0	795684.0	0.145100	0.685862
     29436.15	0.12811	1928443.0	1667718.0	840084.0	0.145257	0.685710
     29436.65	0.12100	1809397.0	1564814.0	788604.0	0.145227	0.685258
     29437.15	0.12632	1896647.0	1640871.0	826861.0	0.144860	0.685346
     29437.64	0.12453	1869947.0	1617062.0	815329.0	0.145299	0.684774
     29438.14	0.12551	1883577.0	1628996.0	821442.0	0.145209	0.684658
     29438.64	0.12449	1873078.0	1620326.0	817327.0	0.144956	0.684343
     29439.14	0.11804	1774790.0	1535510.0	774636.0	0.144820	0.684225
     29439.64	0.11930	1791838.0	1550265.0	782378.0	0.144816	0.683843
     29440.14	0.12056	1808272.0	1564224.0	789930.0	0.144982	0.683201
     29440.63	0.12072	1806887.0	1563042.0	789539.0	0.144972	0.682940
     29441.13	0.11872	1772735.0	1533395.0	774501.0	0.145039	0.683021
     29441.63	0.11813	1763793.0	1525938.0	771210.0	0.144857	0.682404
     29442.13	0.11957	1783578.0	1542634.0	780045.0	0.145130	0.681895
     29442.63	0.13435	2005278.0	1734782.0	877466.0	0.144901	0.681599
     29443.13	0.14461	2166105.0	1874054.0	947954.0	0.144827	0.681553
     29443.63	0.11031	1656045.0	1432515.0	724992.0	0.145001	0.681026
     29444.12	0.13162	1973408.0	1707108.0	864198.0	0.144961	0.680754
     29444.62	0.12053	1807042.0	1563523.0	791556.0	0.144750	0.680696
     29445.12	0.13483	2026999.0	1753557.0	888205.0	0.144910	0.680199
     29445.62	0.12400	1853843.0	1603484.0	812616.0	0.145082	0.679675
     29446.12	0.12312	1850095.0	1600848.0	811455.0	0.144704	0.679460
     29446.62	0.12034	1805997.0	1562345.0	792576.0	0.144925	0.678655
     29447.12	0.13100	1960954.0	1696702.0	860926.0	0.144745	0.678433
     29447.62	0.12197	1837350.0	1589597.0	807062.0	0.144844	0.677835
     29448.11	0.13039	1962362.0	1698181.0	862156.0	0.144591	0.677877
     29448.61	0.11684	1756127.0	1519634.0	771613.0	0.144641	0.677742
     29449.11	0.13125	1972519.0	1706764.0	867451.0	0.144712	0.676795
     29449.61	0.12991	1956009.0	1692392.0	860356.0	0.144763	0.676552
     29450.11	0.13036	1951225.0	1688435.0	858769.0	0.144655	0.676057
     29450.61	0.13228	1987085.0	1719213.0	874556.0	0.144802	0.675906
     29451.11	0.12372	1859925.0	1608990.0	818729.0	0.144930	0.675609
     29451.61	0.12496	1879381.0	1625988.0	827698.0	0.144827	0.675223
     29452.10	0.13455	2024022.0	1751306.0	891875.0	0.144725	0.674791
     29452.60	0.13144	1975932.0	1710139.0	871423.0	0.144466	0.674202
     29453.10	0.12427	1869543.0	1617766.0	824791.0	0.144648	0.673671
     29453.60	0.13233	1982021.0	1715211.0	874629.0	0.144581	0.673492
     29454.10	0.12176	1826456.0	1580794.0	806352.0	0.144450	0.673162
     29454.60	0.12171	1823170.0	1577990.0	805599.0	0.144425	0.672321
     29455.10	0.12989	1952587.0	1689304.0	862646.0	0.144839	0.672067
     29455.60	0.11747	1766652.0	1529234.0	780968.0	0.144319	0.671988
     29456.10	0.11997	1802258.0	1560005.0	797168.0	0.144351	0.671379
     29456.59	0.12718	1909022.0	1652461.0	844650.0	0.144325	0.671099
     29457.09	0.12166	1828309.0	1582587.0	808986.0	0.144331	0.671035
     29457.59	0.10494	1577649.0	1365673.0	698424.0	0.144288	0.670576
     29458.09	0.13476	2024981.0	1752972.0	897188.0	0.144248	0.669802
     29458.59	0.10992	1651897.0	1429799.0	732006.0	0.144390	0.669500
     29459.09	0.12347	1850778.0	1601802.0	820247.0	0.144477	0.669279
     29459.59	0.10088	1507564.0	1305372.0	669027.0	0.144007	0.668419
     29460.09	0.12142	1817522.0	1573135.0	806178.0	0.144404	0.668521
     29460.59	0.11463	1718158.0	1487448.0	762708.0	0.144191	0.667942
     29461.09	0.11936	1790452.0	1550126.0	795340.0	0.144132	0.667322
     29461.59	0.12797	1912583.0	1655870.0	849616.0	0.144128	0.667297
     29462.09	0.13171	1966028.0	1701843.0	873677.0	0.144303	0.666756
     29462.58	0.12302	1843418.0	1596078.0	819524.0	0.144072	0.666581
     29463.08	0.14576	2174993.0	1883462.0	967463.0	0.143914	0.666190
     29463.58	0.12293	1843927.0	1596968.0	820160.0	0.143791	0.666363
     29464.08	0.11561	1735561.0	1502846.0	772296.0	0.143970	0.665748
     29464.58	0.13170	1971556.0	1707421.0	877814.0	0.143839	0.665305
     29465.08	0.12775	1909368.0	1653695.0	849962.0	0.143760	0.665576
     29465.58	0.13054	1951806.0	1690632.0	869377.0	0.143653	0.665081
     29466.08	0.13590	2031975.0	1759818.0	905640.0	0.143798	0.664324
     29466.58	0.13060	1949206.0	1688292.0	868944.0	0.143705	0.664194
     29467.08	0.17150	2565959.0	2222660.0	1144033.0	0.143628	0.664145
     29467.58	0.10704	1590347.0	1377959.0	709401.0	0.143349	0.663938
     29468.08	0.098930	1473367.0	1276214.0	657383.0	0.143652	0.663386
     29468.58	0.13269	1980963.0	1716042.0	883821.0	0.143563	0.663521
     29469.08	0.13562	2012481.0	1743479.0	898110.0	0.143486	0.663345
     29469.58	0.13450	2010826.0	1742440.0	897968.0	0.143259	0.662907
     29470.07	0.15049	2249273.0	1949127.0	1004522.0	0.143225	0.662870
     29470.57	0.13138	1953696.0	1692694.0	873113.0	0.143402	0.662012
     29471.07	0.13518	2020044.0	1750398.0	902780.0	0.143276	0.662120
     29471.57	0.11205	1667473.0	1445184.0	745543.0	0.143073	0.661879
     29472.07	0.13093	1939414.0	1680043.0	866260.0	0.143566	0.662390
     29472.57	0.12953	1923591.0	1667188.0	860139.0	0.143055	0.661800
     29473.07	0.12926	1921960.0	1665881.0	859236.0	0.142991	0.662066
     29473.57	0.12877	1920285.0	1664440.0	859031.0	0.142985	0.661439
     29474.07	0.12361	1838318.0	1592971.0	821974.0	0.143250	0.661647
     29474.57	0.14879	2215461.0	1920543.0	991436.0	0.142853	0.661209
     29475.07	0.11004	1643029.0	1424285.0	735308.0	0.142872	0.661136
     29475.57	0.11863	1765688.0	1530576.0	790272.0	0.142896	0.661022
     29476.07	0.11890	1772795.0	1536456.0	793383.0	0.143079	0.660928
     29476.57	0.12616	1881783.0	1631314.0	842452.0	0.142834	0.660824
     29477.07	0.12628	1878740.0	1628992.0	841468.0	0.142640	0.660569
     29477.57	0.12447	1854568.0	1607715.0	830128.0	0.142838	0.660989
     29478.07	0.12639	1890786.0	1639397.0	846670.0	0.142664	0.660773
     29478.57	0.12264	1825752.0	1582880.0	817425.0	0.142746	0.660842
     29479.07	0.11321	1685238.0	1461254.0	754668.0	0.142612	0.660772
     29479.57	0.12252	1823201.0	1580640.0	816459.0	0.142764	0.660608
     29480.07	0.11846	1753810.0	1520527.0	785489.0	0.142734	0.660506
     29480.57	0.12815	1901901.0	1649227.0	852078.0	0.142547	0.660384
     29481.07	0.11706	1739255.0	1508053.0	778828.0	0.142637	0.660784
     29481.57	0.11830	1760041.0	1526634.0	788207.0	0.142272	0.661060
     29482.07	0.13718	2044368.0	1772812.0	916153.0	0.142522	0.660139
     29482.57	0.13752	2052876.0	1780030.0	919504.0	0.142612	0.660551
     29483.07	0.12852	1918283.0	1663587.0	859453.0	0.142454	0.660435
     29483.57	0.11482	1711714.0	1484122.0	767048.0	0.142672	0.660029
     29484.07	0.13135	1959418.0	1699617.0	878282.0	0.142245	0.660190
     29484.57	0.12654	1882219.0	1632507.0	843398.0	0.142335	0.660433
     29485.07	0.13325	1993151.0	1728783.0	893136.0	0.142299	0.660434
     29485.57	0.11472	1714129.0	1487179.0	768154.0	0.142024	0.660646
     29486.07	0.13142	1963526.0	1703291.0	880088.0	0.142180	0.660296
     29486.57	0.13605	2025886.0	1757335.0	907164.0	0.142209	0.661230
     29487.07	0.12708	1898176.0	1646814.0	850757.0	0.142051	0.660471
     29487.57	0.11523	1723352.0	1495590.0	772234.0	0.141750	0.660988
     29488.07	0.11878	1768850.0	1535005.0	792706.0	0.141796	0.660837
     29488.57	0.12213	1819022.0	1578373.0	815167.0	0.141904	0.660757
     29489.07	0.13365	1984120.0	1721399.0	889114.0	0.142038	0.660667
     29489.57	0.13173	1957669.0	1698933.0	877437.0	0.141754	0.660751
     29490.07	0.16248	2414750.0	2095406.0	1082062.0	0.141848	0.660879
     29490.57	0.12878	1908265.0	1655976.0	854789.0	0.141804	0.661291
     29491.07	0.095431	1418510.0	1230885.0	635751.0	0.141874	0.660682
     29491.57	0.12410	1850742.0	1606413.0	829216.0	0.141583	0.661278
     29492.07	0.12042	1784738.0	1548664.0	800060.0	0.141879	0.660461
     29492.57	0.12282	1829568.0	1587534.0	820257.0	0.141898	0.660319
     29493.07	0.14001	2073602.0	1800097.0	929809.0	0.141447	0.660617
     29493.57	0.13330	1985584.0	1723664.0	890060.0	0.141461	0.660919
     29494.07	0.12399	1839459.0	1596505.0	824254.0	0.141655	0.661093
     29494.57	0.11431	1700849.0	1476446.0	762314.0	0.141490	0.661035
     29495.07	0.11176	1661261.0	1442098.0	744628.0	0.141478	0.660970
     29495.57	0.12536	1862900.0	1616899.0	835067.0	0.141624	0.660753
     29496.07	0.11781	1755541.0	1524575.0	787113.0	0.141061	0.661099
     29496.57	0.12345	1834228.0	1592856.0	822455.0	0.141095	0.660990
     29497.07	0.11730	1739912.0	1510788.0	780156.0	0.141203	0.660893
     29497.57	0.14956	2223270.0	1930954.0	996479.0	0.140965	0.661541
     29498.07	0.11143	1647630.0	1430898.0	738978.0	0.141036	0.660789
     29498.57	0.11094	1641004.0	1425145.0	736039.0	0.141035	0.660746
     29499.07	0.090211	1339870.0	1163874.0	600857.0	0.140818	0.661152
     29499.57	0.12122	1805587.0	1568363.0	809926.0	0.140853	0.660845
     29500.07	0.11291	1661603.0	1443156.0	744982.0	0.140950	0.661228
     29500.58	0.12735	1892225.0	1643321.0	848725.0	0.141034	0.660739
     29501.08	0.12148	1796045.0	1560139.0	805765.0	0.140812	0.660738
     29501.58	0.13135	1949035.0	1692684.0	874371.0	0.141019	0.660566
     29502.08	0.12404	1818723.0	1579616.0	815551.0	0.140953	0.661073
     29502.58	0.12650	1865810.0	1621005.0	837516.0	0.140649	0.660361
     29503.08	0.13336	1983548.0	1723534.0	890223.0	0.140510	0.660660
     29503.58	0.12346	1822580.0	1583445.0	818261.0	0.140650	0.660177
     29504.08	0.14332	2123593.0	1844597.0	953123.0	0.140849	0.660272
     29504.58	0.11843	1755575.0	1525025.0	787956.0	0.140786	0.660324
     29505.08	0.15162	2242055.0	1947971.0	1006925.0	0.140605	0.659887
     29505.58	0.14147	2098515.0	1823154.0	942232.0	0.140662	0.660072
     29506.08	0.14580	2167319.0	1883376.0	973321.0	0.140425	0.660107
     29506.58	0.095320	1406376.0	1222088.0	631843.0	0.140455	0.659675
     29507.08	0.12818	1901411.0	1652105.0	854031.0	0.140546	0.659838
     29507.58	0.12224	1818306.0	1580088.0	816656.0	0.140425	0.660018
     29508.09	0.13688	2033189.0	1767003.0	913353.0	0.140321	0.659918
     29508.59	0.15114	2240167.0	1946877.0	1006626.0	0.140324	0.659622
     29509.09	0.15457	2298979.0	1998427.0	1033254.0	0.140105	0.659647
     29509.59	0.19957	2964631.0	2576166.0	1333127.0	0.140450	0.658775
     29510.09	0.088685	1312342.0	1140361.0	589944.0	0.140468	0.659073
     29510.59	0.069459	1028505.0	893594.0	462050.0	0.140610	0.659578
     29511.09	0.12748	1878564.0	1632827.0	844875.0	0.140195	0.658879
     29511.59	0.12298	1818362.0	1580159.0	818022.0	0.140411	0.658392
     29512.09	0.13179	1951435.0	1695881.0	877995.0	0.140363	0.658317
     29512.59	0.13078	1932793.0	1680120.0	869980.0	0.140101	0.658150
     29513.09	0.12058	1789719.0	1555779.0	805725.0	0.140082	0.657989
     29513.60	0.12924	1905068.0	1656128.0	858162.0	0.140035	0.657445
     29514.10	0.12118	1784707.0	1551239.0	803959.0	0.140200	0.657261
     29514.60	0.12615	1854454.0	1612500.0	835911.0	0.139805	0.657019
     29515.10	0.12576	1861820.0	1618608.0	838836.0	0.139988	0.657307
     29515.60	0.13371	1976757.0	1718321.0	891259.0	0.140110	0.656468
     29516.10	0.12236	1808917.0	1572337.0	815110.0	0.140165	0.656995
     29516.60	0.12098	1788010.0	1554850.0	806457.0	0.139724	0.656484
     29517.10	0.12401	1833865.0	1593982.0	826571.0	0.140190	0.656705
     29517.60	0.11486	1701998.0	1479682.0	767738.0	0.139976	0.656134
     29518.10	0.12867	1903420.0	1654695.0	858270.0	0.140036	0.656453
     29518.61	0.11754	1733877.0	1507675.0	782828.0	0.139791	0.655411
     29519.11	0.12558	1854440.0	1612367.0	836987.0	0.139879	0.655650
     29519.61	0.12228	1811568.0	1575162.0	817954.0	0.139835	0.655307
     29520.11	0.11351	1677237.0	1458068.0	757421.0	0.140036	0.654948
     29520.61	0.13148	1947826.0	1693678.0	880084.0	0.139811	0.654640
     29521.11	0.12965	1921656.0	1670911.0	868434.0	0.139818	0.654433
     29521.61	0.12379	1828325.0	1589850.0	826510.0	0.139761	0.654183
     29522.11	0.12110	1786246.0	1553632.0	808108.0	0.139521	0.653655
     29522.62	0.13005	1924826.0	1673439.0	870783.0	0.139955	0.653243
     29523.12	0.13286	1956227.0	1701046.0	885110.0	0.139774	0.653287
     29523.62	0.13265	1957969.0	1702562.0	886055.0	0.139774	0.653110
     29524.12	0.13191	1953165.0	1698530.0	884237.0	0.139688	0.652793
     29524.62	0.11799	1739491.0	1512824.0	788024.0	0.139614	0.652205
     29525.12	0.11719	1737552.0	1510799.0	786910.0	0.139839	0.652280
     29525.62	0.12656	1859440.0	1616671.0	842756.0	0.139906	0.651447
     29526.12	0.12308	1820200.0	1582889.0	825103.0	0.139695	0.651499
     29526.63	0.12063	1789846.0	1556455.0	811323.0	0.139719	0.651500
     29527.13	0.12589	1858925.0	1616815.0	843159.0	0.139540	0.651058
     29527.63	0.13180	1949731.0	1695798.0	884627.0	0.139538	0.650743
     29528.13	0.13513	1994039.0	1734371.0	905569.0	0.139517	0.649837
     29528.63	0.13097	1936945.0	1684518.0	879602.0	0.139633	0.649765
     29529.13	0.12136	1791128.0	1557699.0	813218.0	0.139636	0.649966
     29529.64	0.12922	1903126.0	1655617.0	864630.0	0.139324	0.649627
     29530.14	0.12914	1912298.0	1663297.0	868928.0	0.139504	0.649297
     29530.64	0.12844	1903528.0	1655347.0	864649.0	0.139698	0.649442
     29531.14	0.12487	1849709.0	1608723.0	841165.0	0.139588	0.648408
     29531.64	0.12969	1918436.0	1668362.0	872207.0	0.139668	0.648571
     29532.14	0.12606	1859112.0	1617219.0	846001.0	0.139391	0.647943
     29532.64	0.13083	1925430.0	1675112.0	876601.0	0.139269	0.647583
     29533.15	0.11595	1705272.0	1483169.0	776641.0	0.139544	0.646958
     29533.65	0.12718	1875463.0	1631650.0	854061.0	0.139264	0.647344
     29534.15	0.11635	1716226.0	1493320.0	781953.0	0.139126	0.646962
     29534.65	0.12683	1870109.0	1627109.0	852208.0	0.139192	0.646729
     29535.15	0.11841	1749949.0	1522437.0	797906.0	0.139274	0.646077
     29535.65	0.11329	1676091.0	1457988.0	764115.0	0.139407	0.646094
     29536.16	0.12095	1790093.0	1557218.0	816456.0	0.139367	0.645683
     29536.66	0.11755	1741361.0	1514960.0	794206.0	0.139278	0.645801
     29537.16	0.11353	1673867.0	1456591.0	763949.0	0.139038	0.645353
     29537.66	0.11115	1639224.0	1426600.0	748983.0	0.138929	0.644333
     29538.16	0.11191	1649509.0	1435563.0	753659.0	0.138921	0.644372
     29538.67	0.11803	1738748.0	1512945.0	794216.0	0.139107	0.644458
     29539.17	0.12698	1874930.0	1631947.0	856727.0	0.138798	0.644410
     29539.67	0.12075	1782511.0	1551322.0	814835.0	0.138916	0.643877
     29540.17	0.12846	1895103.0	1649600.0	866771.0	0.138740	0.643513
     29540.67	0.11591	1709915.0	1488395.0	782203.0	0.138745	0.643339
     29541.17	0.12451	1831682.0	1594291.0	838213.0	0.138806	0.642912
     29541.68	0.14615	2141984.0	1864394.0	980479.0	0.138796	0.642650
     29542.18	0.12874	1904994.0	1658225.0	872260.0	0.138731	0.642415
     29542.68	0.13797	2039363.0	1774822.0	933926.0	0.138937	0.642058
     29543.18	0.12229	1810446.0	1576300.0	829431.0	0.138493	0.642096
     29543.68	0.14024	2063683.0	1796582.0	945687.0	0.138606	0.641730
     29544.19	0.16410	2430852.0	2116287.0	1113918.0	0.138579	0.641780
     29544.69	0.11282	1661236.0	1446294.0	761696.0	0.138557	0.641212
     29545.19	0.099592	1467709.0	1277850.0	673325.0	0.138524	0.640706
     29545.69	0.13304	1965592.0	1711898.0	901894.0	0.138191	0.640861
     29546.19	0.13108	1925275.0	1676813.0	883593.0	0.138174	0.640654
     29546.70	0.13211	1946304.0	1694654.0	893315.0	0.138454	0.640295
     29547.20	0.13611	2007393.0	1747962.0	921698.0	0.138386	0.639988
     29547.70	0.14289	2098224.0	1827445.0	963613.0	0.138172	0.639984
     29548.20	0.13941	2056273.0	1790988.0	944670.0	0.138128	0.639687
     29548.71	0.12631	1862283.0	1621733.0	855811.0	0.138308	0.639201
     29549.21	0.11637	1716481.0	1494679.0	788408.0	0.138365	0.639651
     29549.71	0.12983	1917409.0	1670234.0	881027.0	0.138011	0.639631
     29550.21	0.13129	1927772.0	1678822.0	885977.0	0.138273	0.639157
     29550.71	0.12825	1883703.0	1640589.0	866210.0	0.138184	0.638683
     29551.22	0.12797	1883300.0	1640433.0	866089.0	0.138065	0.638728
     29551.72	0.12410	1816232.0	1582025.0	835500.0	0.138058	0.638431
     29552.22	0.12240	1804678.0	1571843.0	830004.0	0.138133	0.638574
     29552.72	0.12827	1884991.0	1641865.0	867544.0	0.138090	0.637922
     29553.23	0.12680	1859073.0	1619416.0	855897.0	0.138012	0.637671
     29553.73	0.12911	1895173.0	1651345.0	872842.0	0.137720	0.637591
     29554.23	0.12938	1888885.0	1645673.0	869929.0	0.137837	0.637493
     29554.73	0.12428	1830080.0	1594226.0	842431.0	0.137971	0.637852
     29555.24	0.12784	1884509.0	1641946.0	867704.0	0.137785	0.637787
     29555.74	0.11840	1743164.0	1519169.0	803015.0	0.137538	0.637545
     29556.24	0.12039	1772900.0	1544830.0	817127.0	0.137703	0.636875
     29556.74	0.11927	1757701.0	1531907.0	809826.0	0.137493	0.637449
     29557.24	0.12293	1799291.0	1568202.0	829206.0	0.137463	0.637216
     29557.75	0.11627	1707109.0	1487526.0	787045.0	0.137687	0.636584
     29558.25	0.11620	1700121.0	1481706.0	783718.0	0.137505	0.636900
     29558.75	0.12279	1797866.0	1566500.0	829280.0	0.137757	0.636041
     29559.26	0.13524	1979494.0	1725400.0	913093.0	0.137382	0.636376
     29559.76	0.13549	1987930.0	1732607.0	916883.0	0.137467	0.636403
     29560.26	0.12313	1809948.0	1577548.0	835172.0	0.137426	0.635989
     29560.76	0.11251	1653043.0	1440715.0	762763.0	0.137478	0.635947
     29561.27	0.12898	1888009.0	1645732.0	871413.0	0.137338	0.635825
     29561.77	0.13389	1962751.0	1711117.0	905636.0	0.137201	0.636264
     29562.27	0.12676	1847664.0	1610862.0	853157.0	0.137153	0.635581
     29562.77	0.14009	2062978.0	1798409.0	952483.0	0.137248	0.635585
     29563.28	0.12948	1899949.0	1656004.0	876953.0	0.137420	0.635709
     29563.78	0.17072	2502191.0	2181624.0	1155146.0	0.137097	0.635843
     29564.28	0.057055	836738.0	729610.0	386280.0	0.137001	0.635948
     29564.78	0.11671	1716647.0	1496487.0	792494.0	0.137253	0.635691
     29565.29	0.12569	1843822.0	1607252.0	851232.0	0.137315	0.635596
     29565.79	0.12367	1821432.0	1588049.0	841175.0	0.137117	0.635462
     29566.29	0.13077	1920135.0	1673817.0	886757.0	0.137289	0.635291
     29566.80	0.13734	2014559.0	1756594.0	930488.0	0.137024	0.635423
     29567.30	0.13360	1956933.0	1706402.0	903846.0	0.136991	0.635483
     29567.80	0.13575	1995221.0	1740123.0	921781.0	0.136799	0.635403
     29568.30	0.11101	1620584.0	1413304.0	749032.0	0.136856	0.634904
     29568.81	0.12870	1885384.0	1644066.0	871349.0	0.136959	0.634885
     29569.31	0.12625	1854101.0	1617081.0	856868.0	0.136777	0.635094
     29569.81	0.13111	1930842.0	1684299.0	892443.0	0.136607	0.635142
     29570.32	0.13147	1927801.0	1681374.0	891194.0	0.136769	0.634804
     29570.82	0.13077	1916337.0	1671291.0	885805.0	0.136819	0.634855
     29571.32	0.12493	1829450.0	1595518.0	845545.0	0.136817	0.634972
     29571.82	0.13441	1968003.0	1716596.0	910116.0	0.136676	0.634526
     29572.33	0.11332	1656870.0	1445034.0	766174.0	0.136797	0.634479
     29572.83	0.12094	1774603.0	1548303.0	821046.0	0.136417	0.634336
     29573.33	0.12216	1786812.0	1558647.0	826313.0	0.136615	0.634600
     29573.84	0.13217	1940729.0	1692645.0	897192.0	0.136771	0.634778
     29574.34	0.11051	1621591.0	1414623.0	749983.0	0.136545	0.634568
     29574.84	0.12520	1830649.0	1596477.0	846301.0	0.136871	0.634680
     29575.35	0.12696	1862451.0	1624336.0	861352.0	0.136794	0.634351
     29575.85	0.11231	1646983.0	1436993.0	762142.0	0.136392	0.634175
     29576.35	0.10906	1593197.0	1389722.0	737062.0	0.136639	0.634187
     29576.85	0.11743	1718262.0	1499361.0	795170.0	0.136274	0.634238
     29577.36	0.10739	1570233.0	1370361.0	726966.0	0.136150	0.633950
     29577.86	0.12292	1788324.0	1559854.0	827618.0	0.136687	0.633796
     29578.36	0.11783	1706751.0	1489153.0	790418.0	0.136384	0.633401
     29578.87	0.11466	1675124.0	1461345.0	775343.0	0.136530	0.633807
     29579.37	0.12919	1885613.0	1645565.0	873300.0	0.136169	0.633560
     29579.87	0.12935	1894949.0	1653851.0	877473.0	0.136085	0.633816
     29580.38	0.14419	2115962.0	1846367.0	979629.0	0.136290	0.633801
     29580.88	0.10840	1586064.0	1383685.0	734243.0	0.136505	0.633665
     29581.38	0.12301	1800837.0	1571617.0	833895.0	0.136147	0.633753
     29581.89	0.13625	1991451.0	1738101.0	922238.0	0.136070	0.633745
     29582.39	0.13087	1904703.0	1662423.0	882251.0	0.136050	0.633555
     29582.89	0.13535	1975923.0	1724714.0	915508.0	0.135974	0.633337
     29583.40	0.12570	1830574.0	1597867.0	848132.0	0.135960	0.633389
     29583.90	0.12985	1883628.0	1644298.0	872437.0	0.135886	0.633778
     29584.40	0.11961	1748844.0	1527150.0	810564.0	0.135552	0.633428
     29584.91	0.12740	1857592.0	1621635.0	860991.0	0.135846	0.633106
     29585.41	0.12714	1858937.0	1623180.0	861445.0	0.135618	0.633531
     29585.91	0.14199	2077005.0	1813553.0	962910.0	0.135639	0.633083
     29586.42	0.12367	1802011.0	1573666.0	835455.0	0.135495	0.633187
     29586.92	0.13643	1996813.0	1743271.0	925986.0	0.135789	0.632659
     29587.42	0.13184	1916955.0	1673537.0	888820.0	0.135799	0.632800
     29587.93	0.14815	2160488.0	1886329.0	1001968.0	0.135702	0.632667
     29588.43	0.13806	2011293.0	1756435.0	933007.0	0.135492	0.632629
     29588.93	0.11253	1644125.0	1435450.0	762398.0	0.135730	0.632765
     29589.44	0.13742	2015642.0	1759536.0	934715.0	0.135888	0.632564
     29589.94	0.12352	1807734.0	1578608.0	838474.0	0.135531	0.632715
     29590.45	0.13597	1993345.0	1740827.0	924775.0	0.135454	0.632565
     29590.95	0.14478	2110867.0	1843154.0	979554.0	0.135621	0.632136
     29591.45	0.11088	1623764.0	1418082.0	753660.0	0.135442	0.632119
     29591.96	0.12872	1876187.0	1639032.0	871023.0	0.135136	0.632193
     29592.46	0.11594	1694027.0	1479759.0	786637.0	0.135229	0.631868
     29592.96	0.12019	1764109.0	1540760.0	818985.0	0.135370	0.631965
     29593.47	0.13041	1898676.0	1658717.0	881501.0	0.135112	0.632174
     29593.97	0.12461	1822382.0	1591735.0	846168.0	0.135320	0.631862
     29594.48	0.12726	1858344.0	1623277.0	863265.0	0.135239	0.631481
     29594.98	0.13022	1900473.0	1660205.0	882918.0	0.135162	0.631464
     29595.48	0.12569	1833301.0	1601443.0	852029.0	0.135213	0.631040
     29595.99	0.11739	1710816.0	1494462.0	794900.0	0.135204	0.631305
     29596.49	0.11426	1668439.0	1457414.0	775536.0	0.135225	0.630865
     29596.99	0.12652	1847907.0	1614766.0	859432.0	0.134864	0.630674
     29597.50	0.11077	1616778.0	1412524.0	751698.0	0.135057	0.630799
     29598.00	0.13010	1897316.0	1657706.0	882453.0	0.135006	0.630484
     29598.51	0.12446	1811539.0	1583082.0	842844.0	0.134803	0.630347
     29599.01	0.12222	1778146.0	1553522.0	827569.0	0.135047	0.629787
     29599.51	0.12853	1871217.0	1634994.0	870614.0	0.134950	0.630196
     29600.02	0.12397	1797584.0	1570800.0	836800.0	0.134858	0.629755
     29600.52	0.13027	1891117.0	1652745.0	880587.0	0.134730	0.629604
     29601.03	0.12337	1803532.0	1576259.0	839555.0	0.134693	0.629938
     29601.53	0.13850	2012664.0	1759047.0	937374.0	0.134687	0.629445
     29602.03	0.12275	1784329.0	1559617.0	831064.0	0.134602	0.629489
     29602.54	0.12318	1796065.0	1570112.0	836660.0	0.134451	0.629484
     29603.04	0.13455	1954764.0	1708384.0	910659.0	0.134722	0.629135
     29603.55	0.12384	1795333.0	1569212.0	836493.0	0.134617	0.629111
     29604.05	0.11994	1740751.0	1521666.0	811254.0	0.134511	0.628980
     29604.55	0.12136	1766901.0	1544284.0	823394.0	0.134667	0.628881
     29605.06	0.12904	1870565.0	1635279.0	872386.0	0.134427	0.628337
     29605.56	0.12526	1817945.0	1589109.0	848105.0	0.134533	0.627924
     29606.07	0.12437	1804676.0	1577517.0	841698.0	0.134529	0.628186
     29606.57	0.14043	2039669.0	1783174.0	951906.0	0.134393	0.627684
     29607.07	0.13084	1902044.0	1663058.0	888108.0	0.134271	0.627320
     29607.58	0.13152	1910027.0	1669977.0	891623.0	0.134308	0.627522
     29608.08	0.13606	1975650.0	1727533.0	922631.0	0.134203	0.627220
     29608.59	0.11521	1681812.0	1470119.0	785541.0	0.134528	0.626726
     29609.09	0.13219	1917314.0	1676725.0	895989.0	0.134083	0.626670
     29609.60	0.13672	1997516.0	1746517.0	933305.0	0.134281	0.626647
     29610.10	0.12689	1836154.0	1605547.0	858499.0	0.134209	0.626034
     29610.60	0.12805	1854236.0	1621542.0	866531.0	0.134095	0.626635
     29611.11	0.12995	1879238.0	1643193.0	878716.0	0.134225	0.625935
     29611.61	0.11437	1658968.0	1451063.0	775902.0	0.133899	0.626025
     29612.12	0.12830	1861872.0	1628065.0	870796.0	0.134190	0.625740
     29612.62	0.11699	1696327.0	1483730.0	793528.0	0.133906	0.625826
     29613.13	0.12907	1871386.0	1636327.0	875882.0	0.134225	0.624978
     29613.63	0.12637	1831557.0	1601453.0	857254.0	0.134255	0.624932
     29614.13	0.11474	1667365.0	1458003.0	780562.0	0.134177	0.624809
     29614.64	0.11898	1725973.0	1509015.0	808013.0	0.134334	0.624634
     29615.14	0.12538	1823361.0	1594743.0	854228.0	0.133969	0.624270
     29615.65	0.10826	1566823.0	1370627.0	733957.0	0.133782	0.624573
     29616.15	0.11355	1640017.0	1434270.0	768506.0	0.134051	0.623963
     29616.66	0.12311	1787153.0	1563459.0	838052.0	0.133723	0.623576
     29617.16	0.11091	1595728.0	1395964.0	748281.0	0.133745	0.623562
     29617.67	0.11685	1694960.0	1482449.0	795023.0	0.133964	0.623080
     29618.17	0.11411	1659374.0	1451534.0	778500.0	0.133819	0.623007
     29618.68	0.11871	1721494.0	1506112.0	807786.0	0.133661	0.622990
     29619.18	0.12526	1822142.0	1594110.0	855140.0	0.133697	0.622806
     29619.68	0.11688	1698009.0	1485214.0	796916.0	0.133898	0.622565
     29620.19	0.11680	1703497.0	1489687.0	799862.0	0.134117	0.621882
     29620.69	0.12952	1887486.0	1651054.0	886593.0	0.133832	0.621783
     29621.20	0.11804	1719063.0	1504122.0	807622.0	0.133570	0.621870
     29621.70	0.13250	1919573.0	1679561.0	901998.0	0.133570	0.621675
     29622.21	0.13491	1970112.0	1723950.0	926022.0	0.133472	0.621475
     29622.71	0.13880	2019063.0	1766843.0	948711.0	0.133439	0.621845
     29623.22	0.13425	1961610.0	1716302.0	922239.0	0.133594	0.621123
     29623.72	0.13010	1886172.0	1650426.0	886847.0	0.133516	0.621116
     29624.23	0.11717	1709097.0	1495183.0	803828.0	0.133717	0.620619
     29624.73	0.11821	1727499.0	1511333.0	812801.0	0.133683	0.620261
     29625.24	0.13984	2032065.0	1778572.0	957013.0	0.133242	0.619749
     29625.74	0.12190	1781643.0	1559067.0	838977.0	0.133448	0.619660
     29626.25	0.12891	1879103.0	1644254.0	885161.0	0.133508	0.619273
     29626.75	0.13594	1972678.0	1726413.0	929402.0	0.133346	0.619260
     29627.26	0.13721	2000120.0	1750217.0	942074.0	0.133467	0.619411
     29627.76	0.14068	2047709.0	1792480.0	965224.0	0.133121	0.618995
     29628.27	0.12801	1867157.0	1634224.0	879962.0	0.133249	0.619045
     29628.77	0.12833	1871210.0	1637399.0	882126.0	0.133476	0.618529
     29629.28	0.12390	1803929.0	1579145.0	850816.0	0.133084	0.618443
     29629.78	0.14280	2084394.0	1824134.0	982919.0	0.133373	0.618334
     29630.28	0.12363	1802826.0	1577764.0	850811.0	0.133347	0.617574
     29630.79	0.13009	1898414.0	1662078.0	896005.0	0.132950	0.617878
     29631.29	0.13091	1911271.0	1673179.0	902184.0	0.133043	0.617662
     29631.80	0.12533	1823582.0	1596655.0	861058.0	0.132892	0.617504
     29632.31	0.12921	1881441.0	1647205.0	888634.0	0.132958	0.617150
     29632.81	0.11933	1737824.0	1521341.0	821097.0	0.133042	0.616706
     29633.32	0.11781	1715922.0	1502235.0	810935.0	0.132997	0.616521
     29633.82	0.12251	1776893.0	1555586.0	839647.0	0.133014	0.616626
     29634.33	0.14089	2026427.0	1774042.0	957952.0	0.133014	0.616218
     29634.83	0.11832	1699589.0	1488319.0	803620.0	0.132739	0.616276
     29635.34	0.13112	1894217.0	1658984.0	896082.0	0.132600	0.615929
     29635.84	0.12945	1879937.0	1646284.0	889397.0	0.132718	0.615732
     29636.35	0.11894	1732668.0	1516789.0	819764.0	0.133067	0.615334
     29636.85	0.12291	1790132.0	1567038.0	846822.0	0.133102	0.615452
     29637.36	0.12576	1832068.0	1604245.0	867394.0	0.132792	0.614915
     29637.86	0.11811	1717652.0	1504051.0	813585.0	0.132796	0.614467
     29638.37	0.11864	1727232.0	1512637.0	817976.0	0.132666	0.614777
     29638.87	0.11879	1729033.0	1514398.0	819135.0	0.132544	0.614524
     29639.38	0.12955	1884689.0	1650528.0	892668.0	0.132668	0.614636
     29639.88	0.12483	1812990.0	1588048.0	859238.0	0.132472	0.614215
     29640.39	0.11875	1726031.0	1511902.0	817934.0	0.132456	0.614342
     29640.89	0.11919	1735919.0	1520431.0	823020.0	0.132543	0.613769
     29641.40	0.12547	1823167.0	1596923.0	864170.0	0.132496	0.614064
     29641.90	0.12829	1859550.0	1629343.0	881533.0	0.132158	0.614270
     29642.41	0.12352	1801378.0	1577996.0	854151.0	0.132396	0.613803
     29642.91	0.13347	1922839.0	1684355.0	912246.0	0.132420	0.613228
     29643.42	0.13680	1970735.0	1726546.0	935198.0	0.132284	0.613120
     29643.93	0.13187	1912537.0	1675842.0	907734.0	0.132115	0.613120
     29644.43	0.13033	1892366.0	1657826.0	898209.0	0.132321	0.612860
     29644.94	0.12117	1755233.0	1538132.0	833513.0	0.132033	0.612675
     29645.44	0.11146	1619633.0	1419359.0	769105.0	0.131994	0.612733
     29645.95	0.12276	1785776.0	1564737.0	847867.0	0.132135	0.612749
     29646.45	0.12743	1854972.0	1625547.0	881250.0	0.132025	0.612258
     29646.96	0.12821	1861993.0	1631501.0	884495.0	0.132147	0.612239
     29647.46	0.12958	1883161.0	1649762.0	894676.0	0.132321	0.611925
     29647.97	0.12684	1842305.0	1614371.0	875259.0	0.132072	0.612181
     29648.48	0.13691	1988640.0	1742404.0	945276.0	0.132185	0.611544
     29648.98	0.13532	1963703.0	1720765.0	933204.0	0.132063	0.611900
     29649.49	0.11633	1686446.0	1478055.0	802059.0	0.131896	0.611300
     29649.99	0.12816	1859634.0	1629410.0	884111.0	0.132162	0.611391
     29650.50	0.12283	1785964.0	1565462.0	849384.0	0.131777	0.611425
     29651.00	0.13324	1934740.0	1696087.0	920495.0	0.131649	0.611168
     29651.51	0.12865	1853997.0	1625509.0	882280.0	0.131523	0.611067
     29652.02	0.13271	1922812.0	1685363.0	914775.0	0.131808	0.611058
     29652.52	0.13847	2006026.0	1758568.0	954862.0	0.131656	0.610688
     29653.03	0.13172	1907676.0	1672846.0	907956.0	0.131359	0.611086
     29653.53	0.10284	1486208.0	1302820.0	707551.0	0.131697	0.610477
     29654.04	0.13180	1905938.0	1670800.0	907032.0	0.131672	0.610880
     29654.54	0.10760	1565064.0	1372206.0	745466.0	0.131507	0.610165
     29655.05	0.13337	1926327.0	1689049.0	917320.0	0.131449	0.610465
     29655.56	0.12460	1801350.0	1579863.0	858094.0	0.131198	0.610380
     29656.06	0.13330	1930397.0	1692442.0	919800.0	0.131553	0.609771
     29656.57	0.13106	1896417.0	1662735.0	903244.0	0.131502	0.610226
     29657.07	0.14103	2041008.0	1789836.0	972524.0	0.131320	0.609985
     29657.58	0.085190	1228756.0	1077564.0	585612.0	0.131299	0.609801
     29658.09	0.10567	1524253.0	1336753.0	726282.0	0.131261	0.610060
     29658.59	0.10831	1549473.0	1358956.0	738531.0	0.131198	0.609809
     29659.10	0.10874	1567671.0	1374923.0	746828.0	0.131193	0.610318
     29659.60	0.12710	1843772.0	1617003.0	878662.0	0.131239	0.609929
     29660.11	0.13076	1896603.0	1663413.0	904194.0	0.131193	0.609583
     29660.62	0.11460	1659864.0	1455626.0	791312.0	0.131300	0.609499
     29661.12	0.13056	1890199.0	1657906.0	901596.0	0.131127	0.609144
     29661.63	0.11552	1664560.0	1460255.0	793698.0	0.130950	0.609663
     29662.13	0.11752	1695367.0	1487093.0	808848.0	0.131076	0.608967
     29662.64	0.12164	1762004.0	1545633.0	840421.0	0.131018	0.609286
     29663.15	0.13513	1961101.0	1719893.0	935407.0	0.131244	0.609036
     29663.65	0.13111	1886490.0	1654909.0	900333.0	0.130972	0.608737
     29664.16	0.15232	2207846.0	1936867.0	1053747.0	0.130946	0.608719
     29664.66	0.13655	1960191.0	1719370.0	935400.0	0.131084	0.608739
     29665.17	0.13185	1879263.0	1648294.0	896564.0	0.131139	0.608926
     29665.68	0.11458	1636015.0	1435195.0	780946.0	0.130963	0.608550
     29666.18	0.11078	1587743.0	1392998.0	758210.0	0.130855	0.608253
     29666.69	0.13177	1893597.0	1661487.0	904394.0	0.130765	0.608203
     29667.19	0.12864	1850744.0	1623856.0	883869.0	0.130784	0.608250
     29667.70	0.13862	1998752.0	1753607.0	954751.0	0.130848	0.607980
     29668.21	0.14072	2029911.0	1781203.0	969698.0	0.130703	0.608060
     29668.71	0.13787	1988465.0	1744860.0	949875.0	0.130689	0.608099
     29669.22	0.14377	2078097.0	1823019.0	992792.0	0.130959	0.607728
     29669.73	0.099182	1413450.0	1239938.0	675411.0	0.130972	0.607495
     29670.23	0.14117	1980559.0	1738194.0	946454.0	0.130532	0.607880
     29670.74	0.12634	1777522.0	1559902.0	849806.0	0.130597	0.607370
     29671.25	0.13312	1889298.0	1658083.0	903033.0	0.130543	0.607658
     29671.75	0.13071	1863170.0	1634994.0	890703.0	0.130640	0.607383
     29672.26	0.13075	1874342.0	1645029.0	896046.0	0.130500	0.607522
     29672.76	0.12454	1787973.0	1569397.0	855313.0	0.130391	0.606979
     29673.27	0.12975	1840140.0	1615353.0	880019.0	0.130288	0.607365
     29673.78	0.11665	1670687.0	1466439.0	798781.0	0.130398	0.607505
     29674.28	0.12676	1817995.0	1595945.0	869853.0	0.130268	0.606897
     29674.79	0.12172	1750300.0	1536421.0	837535.0	0.130332	0.606748
     29675.30	0.13177	1901707.0	1669559.0	909983.0	0.130192	0.606889
     29675.80	0.12684	1829154.0	1605936.0	875176.0	0.130147	0.607037
     29676.31	0.12001	1737044.0	1524727.0	831118.0	0.130369	0.606799
     29676.82	0.13113	1899567.0	1667623.0	909307.0	0.130227	0.606472
     29677.32	0.11939	1725070.0	1514480.0	825974.0	0.130195	0.606264
     29677.83	0.12960	1873805.0	1644992.0	897250.0	0.130236	0.606156
     29678.34	0.11135	1612376.0	1415704.0	772118.0	0.130082	0.606245
     29678.84	0.12435	1796968.0	1578130.0	860672.0	0.129860	0.606282
     29679.35	0.11610	1680926.0	1476091.0	805023.0	0.129947	0.606282
     29679.86	0.13262	1916329.0	1682689.0	917940.0	0.130018	0.606016
     29680.36	0.11027	1594282.0	1400394.0	763983.0	0.129670	0.605963
     29680.87	0.13355	1928313.0	1693114.0	923862.0	0.130076	0.605762
     29681.38	0.11019	1585609.0	1392402.0	759896.0	0.129938	0.605604
     29681.88	0.13153	1893272.0	1662796.0	907416.0	0.129806	0.605655
     29682.39	0.12494	1801996.0	1582549.0	863723.0	0.129858	0.605540
     29682.90	0.12809	1848394.0	1623553.0	886184.0	0.129700	0.605448
     29683.40	0.13683	1978853.0	1738178.0	948990.0	0.129680	0.605194
     29683.91	0.12074	1748500.0	1535640.0	838154.0	0.129811	0.605501
     29684.42	0.13901	2005350.0	1761042.0	961685.0	0.129913	0.604974
     29684.92	0.12737	1836014.0	1612367.0	881043.0	0.129894	0.604352
     29685.43	0.11872	1718654.0	1509565.0	824563.0	0.129720	0.604723
     29685.94	0.12569	1814136.0	1593859.0	870382.0	0.129451	0.604981
     29686.44	0.11652	1683557.0	1478985.0	807983.0	0.129553	0.604570
     29686.95	0.13333	1928904.0	1694569.0	925899.0	0.129524	0.604419
     29687.46	0.13172	1904099.0	1672824.0	913952.0	0.129496	0.604490
     29687.97	0.12210	1760885.0	1547113.0	845433.0	0.129426	0.604297
     29688.47	0.12500	1805381.0	1586051.0	866484.0	0.129524	0.604559
     29688.98	0.12801	1848918.0	1623959.0	887675.0	0.129734	0.604017
     29689.49	0.12322	1775640.0	1560077.0	853075.0	0.129426	0.603643
     29689.99	0.12711	1837422.0	1614477.0	882773.0	0.129352	0.603698
     29690.50	0.12411	1789229.0	1571904.0	859312.0	0.129497	0.603911
     29691.01	0.13246	1914172.0	1682243.0	920002.0	0.129157	0.603507
     29691.51	0.12803	1839251.0	1616283.0	883896.0	0.129229	0.603545
     29692.02	0.13419	1930945.0	1697362.0	928335.0	0.128934	0.603438
     29692.53	0.13640	1960410.0	1722592.0	942297.0	0.129324	0.603265
     29693.04	0.11479	1639106.0	1440530.0	788343.0	0.129140	0.602833
     29693.54	0.12607	1811195.0	1591587.0	870893.0	0.129255	0.602968
     29694.05	0.11973	1711575.0	1504139.0	823281.0	0.129193	0.602678
     29694.56	0.12245	1757614.0	1544543.0	845108.0	0.129229	0.603019
     29695.06	0.11970	1725958.0	1517515.0	830243.0	0.128708	0.603111
     29695.57	0.13500	1950685.0	1714460.0	938918.0	0.129082	0.602125
     29696.08	0.11885	1715085.0	1507270.0	825539.0	0.129163	0.602019
     29696.59	0.12212	1763784.0	1550734.0	849122.0	0.128733	0.602281
     29697.09	0.10945	1573415.0	1383020.0	757152.0	0.128979	0.602461
     29697.60	0.11776	1696923.0	1491799.0	817120.0	0.128834	0.601952
     29698.11	0.11948	1723455.0	1515065.0	830255.0	0.128873	0.601481
     29698.62	0.11313	1628397.0	1431505.0	784350.0	0.128870	0.601626
     29699.12	0.11867	1710387.0	1503199.0	823861.0	0.129124	0.601349
     29699.63	0.11924	1717820.0	1510408.0	827505.0	0.128676	0.601720
     29700.14	0.10614	1531084.0	1346339.0	738186.0	0.128587	0.600949
     29700.65	0.12604	1819484.0	1599534.0	876772.0	0.128841	0.601221
     29701.15	0.12138	1748299.0	1537119.0	842870.0	0.128733	0.600852
     29701.66	0.12222	1758480.0	1546627.0	847946.0	0.128373	0.601015
     29702.17	0.12766	1839493.0	1617491.0	886906.0	0.128614	0.600892
     29702.67	0.13154	1897692.0	1668361.0	915306.0	0.128797	0.600339
     29703.18	0.12936	1857942.0	1633948.0	896340.0	0.128470	0.600435
     29703.69	0.14166	2040392.0	1794709.0	984659.0	0.128299	0.600303
     29704.20	0.12538	1798456.0	1581392.0	867758.0	0.128623	0.600148
     29704.70	0.12743	1834437.0	1613197.0	885103.0	0.128520	0.600269
     29705.21	0.12907	1857581.0	1633827.0	896709.0	0.128350	0.599949
     29705.72	0.12197	1760590.0	1548169.0	849859.0	0.128576	0.599758
     29706.23	0.13491	1938935.0	1705439.0	936257.0	0.128316	0.599688
     29706.74	0.11691	1682796.0	1479982.0	812657.0	0.128427	0.599476
     29707.24	0.13355	1923804.0	1692499.0	929398.0	0.128098	0.599424
     29707.75	0.13889	2003110.0	1761695.0	967753.0	0.128425	0.599055
     29708.26	0.13285	1909838.0	1679488.0	922775.0	0.128529	0.598859
     29708.77	0.12929	1862196.0	1638407.0	899829.0	0.128032	0.599275
     29709.27	0.13123	1890628.0	1663095.0	913728.0	0.128229	0.598903
     29709.78	0.12909	1850606.0	1627950.0	894887.0	0.128192	0.598379
     29710.29	0.13985	2004527.0	1763335.0	969324.0	0.128201	0.598363
     29710.80	0.12914	1858400.0	1634782.0	898320.0	0.128206	0.598738
     29711.30	0.13623	1957940.0	1721918.0	946846.0	0.128454	0.598058
     29711.81	0.12963	1866501.0	1641850.0	902998.0	0.128242	0.597859
     29712.32	0.12612	1814332.0	1595854.0	877517.0	0.128308	0.598068
     29712.83	0.13354	1899967.0	1671800.0	919356.0	0.127936	0.597983
     29713.34	0.11866	1689548.0	1486615.0	817748.0	0.127959	0.597703
     29713.84	0.13201	1887456.0	1660529.0	913679.0	0.128094	0.597412
     29714.35	0.12683	1818361.0	1599617.0	880189.0	0.128171	0.597383
     29714.86	0.12555	1798669.0	1582742.0	871227.0	0.127888	0.597012
     29715.37	0.12565	1799311.0	1582947.0	871205.0	0.128116	0.597166
     29715.88	0.12947	1859023.0	1635645.0	900566.0	0.128014	0.596769
     29716.38	0.12211	1752004.0	1541497.0	848751.0	0.128006	0.596743
     29716.89	0.12252	1757449.0	1546466.0	851461.0	0.127891	0.596774
     29717.40	0.12600	1813292.0	1595513.0	878965.0	0.127949	0.596206
     29717.91	0.11644	1670176.0	1469637.0	809310.0	0.127914	0.596589
     29718.41	0.11570	1658903.0	1459813.0	804516.0	0.127848	0.595823
     29718.92	0.12517	1787605.0	1573338.0	866839.0	0.127677	0.596101
     29719.43	0.12681	1824930.0	1605829.0	885172.0	0.127901	0.595613
     29719.94	0.12689	1823104.0	1603962.0	883929.0	0.128064	0.595855
     29720.45	0.11077	1589685.0	1399070.0	771156.0	0.127728	0.595672
     29720.96	0.11985	1724694.0	1517993.0	837107.0	0.127661	0.595192
     29721.46	0.12631	1806248.0	1589241.0	876406.0	0.127995	0.595182
     29721.97	0.12062	1733820.0	1526148.0	841416.0	0.127580	0.595416
     29722.48	0.13220	1902864.0	1675028.0	924033.0	0.127530	0.594837
     29722.99	0.12754	1831822.0	1612261.0	889595.0	0.127674	0.594627
     29723.50	0.13641	1953987.0	1719929.0	948989.0	0.127589	0.594641
     29724.00	0.13270	1904092.0	1676296.0	924882.0	0.127419	0.594676
     29724.51	0.12876	1849074.0	1627406.0	898156.0	0.127698	0.594399
     29725.02	0.12671	1817897.0	1600166.0	883546.0	0.127573	0.593919
     29725.53	0.12435	1781754.0	1568623.0	866008.0	0.127400	0.594059
     29726.04	0.12029	1729395.0	1522571.0	840685.0	0.127371	0.593939
     29726.55	0.11942	1713867.0	1508896.0	833345.0	0.127374	0.593686
     29727.05	0.12028	1726101.0	1519736.0	839439.0	0.127328	0.593558
     29727.56	0.13120	1879247.0	1654662.0	913800.0	0.127274	0.593740
     29728.07	0.12553	1800770.0	1585433.0	876151.0	0.127357	0.593074
     29728.58	0.12712	1825035.0	1606459.0	888028.0	0.127567	0.592784
     29729.09	0.13118	1881804.0	1656859.0	915667.0	0.127307	0.593026
     29729.60	0.12509	1795240.0	1580531.0	873791.0	0.127378	0.592675
     29730.10	0.12428	1781894.0	1568764.0	867605.0	0.127389	0.592307
     29730.61	0.13648	1958898.0	1725082.0	953767.0	0.127107	0.592610
     29731.12	0.12343	1771679.0	1560357.0	862782.0	0.127013	0.592508
     29731.63	0.13785	1976763.0	1741183.0	962464.0	0.126896	0.592823
     29732.14	0.12650	1816930.0	1599666.0	884690.0	0.127353	0.592313
     29732.65	0.18331	2628706.0	2315034.0	1280967.0	0.127067	0.591809
     29733.15	0.15435	2217046.0	1952359.0	1079843.0	0.127137	0.592223
     29733.66	0.063123	907310.0	798826.0	442021.0	0.127341	0.591786
     29734.17	0.094766	1359554.0	1197614.0	662668.0	0.126825	0.591812
     29734.68	0.12411	1777380.0	1565354.0	866500.0	0.127028	0.591405
     29735.19	0.13046	1871110.0	1647995.0	912023.0	0.126972	0.591649
     29735.70	0.12146	1742330.0	1534839.0	849490.0	0.126798	0.591545
     29736.21	0.12717	1818980.0	1602461.0	887442.0	0.126735	0.590953
     29736.71	0.17145	2457483.0	2164765.0	1198861.0	0.126826	0.590940
     29737.22	0.13712	1949967.0	1717945.0	951714.0	0.126684	0.590620
     29737.73	0.071943	1030380.0	907748.0	502812.0	0.126716	0.590750
     29738.24	0.091122	1307375.0	1151658.0	638076.0	0.126819	0.590501
     29738.75	0.11008	1576969.0	1389552.0	770088.0	0.126523	0.590232
     29739.26	0.11584	1659690.0	1462258.0	810616.0	0.126649	0.589943
     29739.77	0.12116	1733178.0	1526945.0	846209.0	0.126688	0.590258
     29740.28	0.14526	2078720.0	1831386.0	1015517.0	0.126679	0.589675
     29740.78	0.15288	2186821.0	1926894.0	1068394.0	0.126540	0.589753
     29741.29	0.10884	1557834.0	1372816.0	761145.0	0.126432	0.589796
     29741.80	0.076179	1092494.0	962627.0	533843.0	0.126552	0.589564
     29742.31	0.12010	1718245.0	1514196.0	839976.0	0.126419	0.589267
     29742.82	0.12467	1781857.0	1570188.0	870903.0	0.126461	0.589420
     29743.33	0.12712	1821014.0	1604835.0	890167.0	0.126373	0.589367
     29743.84	0.14677	2099833.0	1850576.0	1026782.0	0.126361	0.589067
     29744.35	0.12540	1793004.0	1579923.0	876817.0	0.126516	0.588833
     29744.86	0.12131	1722992.0	1518482.0	842823.0	0.126351	0.588709
     29745.36	0.13785	1967970.0	1734329.0	962955.0	0.126382	0.588369
     29745.87	0.12847	1832615.0	1615715.0	896774.0	0.125966	0.588729
     29746.38	0.12299	1755827.0	1547680.0	859507.0	0.126183	0.588153
     29746.89	0.12371	1768436.0	1558718.0	865299.0	0.126232	0.588544
     29747.40	0.13039	1852987.0	1633163.0	907171.0	0.126280	0.587943
     29747.91	0.13746	1961154.0	1729058.0	960004.0	0.125956	0.588395
     29748.42	0.14725	2094090.0	1845867.0	1025713.0	0.126170	0.587561
     29748.93	0.21119	3005380.0	2649610.0	1471772.0	0.125992	0.587945
     29749.44	0.076180	1075339.0	948010.0	527062.0	0.126026	0.587047
     29749.95	0.083690	1192495.0	1051163.0	584079.0	0.126151	0.587616
     29750.45	0.13724	1950318.0	1719486.0	955554.0	0.125967	0.587489
     29750.96	0.14322	2042254.0	1800597.0	1000724.0	0.125936	0.587395
     29751.47	0.12859	1824707.0	1609170.0	894770.0	0.125701	0.586907
     29751.98	0.13457	1915607.0	1689189.0	939221.0	0.125786	0.586953
     29752.49	0.15583	2214089.0	1952191.0	1085645.0	0.125889	0.586778
     29753.00	0.12713	1805465.0	1592265.0	885514.0	0.125661	0.586745
     29753.51	0.094435	1339869.0	1181609.0	657257.0	0.125695	0.586557
     29754.02	0.11944	1702039.0	1500997.0	834695.0	0.125697	0.586818
     29754.53	0.12405	1761014.0	1553029.0	863911.0	0.125683	0.586493
     29755.04	0.13103	1869086.0	1648439.0	917658.0	0.125621	0.585759
     29755.55	0.12570	1787307.0	1576017.0	876844.0	0.125809	0.586327
     29756.06	0.12722	1809934.0	1596564.0	888536.0	0.125437	0.586034
     29756.57	0.13526	1912547.0	1686804.0	938930.0	0.125600	0.585850
     29757.07	0.12460	1772931.0	1563417.0	870358.0	0.125760	0.585724
     29757.58	0.11662	1655641.0	1460589.0	812815.0	0.125348	0.586092
     29758.09	0.11768	1678702.0	1480800.0	824338.0	0.125438	0.585757
     29758.60	0.12284	1740768.0	1535408.0	854868.0	0.125530	0.585604
     29759.11	0.12552	1791044.0	1580062.0	879909.0	0.125335	0.585401
     29759.62	0.11484	1627434.0	1435745.0	799895.0	0.125321	0.584959
     29760.13	0.12267	1746146.0	1540496.0	858096.0	0.125307	0.585144
     29760.64	0.12399	1757471.0	1550266.0	863871.0	0.125449	0.584758
     29761.15	0.11989	1703519.0	1503081.0	837242.0	0.125179	0.585159
     29761.66	0.12305	1749858.0	1543832.0	860227.0	0.125267	0.584827
     29762.17	0.12205	1729742.0	1526013.0	850328.0	0.125314	0.584792
     29762.68	0.13121	1857064.0	1638622.0	913249.0	0.125141	0.584602
     29763.19	0.12575	1790456.0	1579733.0	880753.0	0.125214	0.584234
     29763.70	0.12628	1795882.0	1584258.0	883260.0	0.125380	0.584252
     29764.21	0.13618	1936902.0	1709131.0	952565.0	0.125105	0.584582
     29764.72	0.12483	1777023.0	1567797.0	874071.0	0.125268	0.584265
     29765.23	0.12240	1740398.0	1535265.0	856051.0	0.125411	0.584128
     29765.74	0.12613	1792352.0	1581628.0	882154.0	0.125074	0.583843
     29766.25	0.12261	1746722.0	1541645.0	859503.0	0.124891	0.584251
     29766.76	0.12462	1771060.0	1562892.0	871748.0	0.125040	0.583793
     29767.26	0.12903	1830169.0	1614912.0	900630.0	0.125128	0.583941
     29767.77	0.12968	1828917.0	1614045.0	900310.0	0.124981	0.583760
     29768.28	0.12736	1808524.0	1596390.0	890644.0	0.124766	0.583555
     29768.79	0.11831	1681277.0	1484302.0	827982.0	0.124609	0.583708
     29769.30	0.13453	1906730.0	1683062.0	939112.0	0.124775	0.583435
     29769.81	0.12750	1812569.0	1600052.0	892733.0	0.124709	0.583504
     29770.32	0.13263	1884921.0	1663640.0	928361.0	0.124878	0.583343
     29770.83	0.12395	1757131.0	1551739.0	866196.0	0.124306	0.583020
     29771.34	0.13144	1844449.0	1628215.0	908935.0	0.124696	0.582966
     29771.85	0.13869	1964452.0	1733994.0	968035.0	0.124786	0.582914
     29772.36	0.12668	1795863.0	1585086.0	885046.0	0.124847	0.582754
     29772.87	0.12660	1784938.0	1576015.0	880287.0	0.124484	0.582407
     29773.38	0.12375	1751349.0	1546205.0	863485.0	0.124583	0.582582
     29773.89	0.13026	1853384.0	1635984.0	913335.0	0.124769	0.582897
     29774.40	0.12107	1719953.0	1518392.0	848093.0	0.124645	0.582417
     29774.91	0.12008	1708651.0	1508667.0	842720.0	0.124478	0.582347
     29775.42	0.11992	1680743.0	1483739.0	829092.0	0.124671	0.581989
     29775.93	0.13435	1901039.0	1678346.0	937404.0	0.124592	0.582450
     29776.44	0.11586	1647632.0	1454708.0	812426.0	0.124534	0.582536
     29776.95	0.11241	1598844.0	1411869.0	788805.0	0.124367	0.582150
     29777.46	0.12228	1735882.0	1533122.0	856417.0	0.124209	0.582304
     29777.97	0.12610	1769289.0	1562639.0	873350.0	0.124202	0.581795
     29778.48	0.10152	1434180.0	1266355.0	707470.0	0.124451	0.582203
     29778.99	0.11642	1638763.0	1447314.0	808696.0	0.124232	0.582042
     29779.50	0.12245	1737426.0	1534272.0	857450.0	0.124349	0.581848
     29780.01	0.11311	1587637.0	1402446.0	783808.0	0.124029	0.581809
     29780.52	0.13948	1965450.0	1735791.0	970441.0	0.124258	0.581468
     29781.03	0.094165	1339043.0	1182590.0	661033.0	0.124248	0.581658
     29781.54	0.11275	1597882.0	1411636.0	789326.0	0.123930	0.581325
     29782.05	0.12425	1751349.0	1547399.0	865236.0	0.123811	0.581328
     29782.56	0.12693	1784296.0	1576232.0	881126.0	0.123987	0.581592
     29783.07	0.14195	1969126.0	1739705.0	973017.0	0.123874	0.581069
     29783.58	0.12974	1819718.0	1607112.0	898794.0	0.124243	0.581140
     29784.09	0.14019	1970778.0	1740764.0	973673.0	0.124104	0.581004
     29784.60	0.12317	1748386.0	1544523.0	863543.0	0.123978	0.581427
     29785.12	0.11556	1628377.0	1438595.0	804889.0	0.123917	0.580718
     29785.63	0.13969	1962828.0	1733814.0	969889.0	0.124063	0.580897
     29786.14	0.12139	1713037.0	1513642.0	846832.0	0.123749	0.580772
     29786.65	0.13706	1945579.0	1719089.0	962267.0	0.123765	0.580258
     29787.16	0.12836	1815929.0	1604756.0	897829.0	0.123625	0.580747
     29787.67	0.12220	1723640.0	1523182.0	852082.0	0.123637	0.580874
     29788.18	0.14303	2032500.0	1796103.0	1004589.0	0.123647	0.581041
     29788.69	0.13248	1880948.0	1662443.0	930538.0	0.123488	0.580281
     29789.20	0.13488	1910753.0	1688439.0	945332.0	0.123693	0.580024
     29789.71	0.14139	1998247.0	1765407.0	988647.0	0.123889	0.579799
     29790.22	0.13342	1890306.0	1670435.0	935079.0	0.123655	0.580208
     29790.73	0.13588	1929477.0	1705250.0	954546.0	0.123537	0.580231
     29791.24	0.12583	1785785.0	1578659.0	883913.0	0.123282	0.579972
     29791.75	0.12410	1759300.0	1554629.0	870916.0	0.123679	0.579447
     29792.26	0.13241	1879655.0	1661080.0	930133.0	0.123620	0.579896
     29792.77	0.12708	1804011.0	1594167.0	893073.0	0.123661	0.579438
     29793.28	0.12414	1763240.0	1558361.0	872659.0	0.123518	0.579845
     29793.79	0.12515	1773089.0	1567323.0	878265.0	0.123354	0.579176
     29794.30	0.12234	1730383.0	1529661.0	857032.0	0.123297	0.579326
     29794.81	0.13273	1881709.0	1663287.0	932107.0	0.123385	0.579103
     29795.32	0.12603	1790302.0	1582451.0	886443.0	0.123409	0.579513
     29795.84	0.12128	1716344.0	1517103.0	850263.0	0.123394	0.579012
     29796.35	0.12695	1799229.0	1590620.0	891482.0	0.123234	0.578994
     29796.86	0.11548	1639612.0	1449474.0	812344.0	0.123259	0.579032
     29797.37	0.13260	1881360.0	1662994.0	932189.0	0.123375	0.578839
     29797.88	0.12899	1825116.0	1614144.0	904607.0	0.122839	0.579059
     29798.39	0.11397	1611919.0	1425597.0	799440.0	0.122835	0.578434
     29798.90	0.11723	1658376.0	1466122.0	822263.0	0.123218	0.578316
     29799.41	0.12223	1730780.0	1530613.0	858506.0	0.122904	0.578230
     29799.92	0.12572	1782785.0	1576291.0	884523.0	0.123102	0.577781
     29800.43	0.12016	1701717.0	1504780.0	844133.0	0.122991	0.578092
     29800.94	0.12301	1739863.0	1538520.0	862856.0	0.122985	0.578328
     29801.45	0.12152	1720635.0	1521616.0	853505.0	0.122920	0.578177
     29801.97	0.12573	1781969.0	1576051.0	884000.0	0.122797	0.578221
     29802.48	0.12270	1737266.0	1536464.0	862253.0	0.122829	0.577690
     29802.99	0.12634	1787127.0	1580389.0	886870.0	0.122938	0.577728
     29803.50	0.13141	1855716.0	1641290.0	921463.0	0.122788	0.577275
     29804.01	0.13365	1883925.0	1666404.0	935380.0	0.122689	0.577470
     29804.52	0.12631	1782643.0	1576543.0	885027.0	0.122863	0.577372
     29805.03	0.13163	1861325.0	1646749.0	924667.0	0.122486	0.577125
     29805.54	0.11948	1680263.0	1486489.0	834593.0	0.122533	0.577228
     29806.05	0.12675	1794515.0	1587045.0	891248.0	0.122861	0.577006
     29806.56	0.11753	1666292.0	1473900.0	827631.0	0.122689	0.577100
     29807.07	0.12879	1820049.0	1609881.0	904395.0	0.122703	0.576649
     29807.59	0.13072	1846173.0	1633449.0	917441.0	0.122421	0.576861
     29808.10	0.19720	2785256.0	2464167.0	1384313.0	0.122486	0.576650
     29808.61	0.11133	1560617.0	1380531.0	775820.0	0.122613	0.576303
     29809.12	0.091424	1292482.0	1143717.0	642483.0	0.122281	0.576698
     29809.63	0.092905	1311266.0	1159759.0	651764.0	0.122781	0.576285
     29810.14	0.13336	1888616.0	1670638.0	939228.0	0.122639	0.575903
     29810.65	0.15228	2152669.0	1904295.0	1070716.0	0.122597	0.575784
     29811.16	0.15049	2122080.0	1877800.0	1055552.0	0.122296	0.576037
     29811.68	0.090240	1273379.0	1127101.0	633804.0	0.122025	0.575664
     29812.19	0.13132	1858262.0	1644168.0	924534.0	0.122407	0.575700
     29812.70	0.11390	1609248.0	1424012.0	800938.0	0.122289	0.575450
     29813.21	0.12400	1757041.0	1554362.0	874326.0	0.122566	0.575367
     29813.72	0.12821	1808405.0	1600944.0	900570.0	0.121852	0.575321
     29814.23	0.12437	1756963.0	1554805.0	874711.0	0.122237	0.575212
     29814.74	0.13239	1871378.0	1655995.0	931773.0	0.122273	0.575068
     29815.25	0.15222	2153532.0	1905962.0	1072410.0	0.122122	0.575078
     29815.77	0.10113	1423675.0	1259683.0	708953.0	0.122381	0.574826
     29816.28	0.14055	1981342.0	1753353.0	986890.0	0.122244	0.574727
     29816.79	0.091000	1286036.0	1138269.0	640798.0	0.122056	0.574550
     29817.30	0.11940	1689345.0	1495303.0	842073.0	0.122012	0.574217
     29817.81	0.11783	1664421.0	1473314.0	829568.0	0.121963	0.574364
     29818.32	0.11154	1575452.0	1394550.0	785642.0	0.121970	0.573826
     29818.83	0.11711	1650453.0	1460788.0	822756.0	0.122074	0.574072
     29819.35	0.13367	1880925.0	1665560.0	937799.0	0.121602	0.574381
     29819.86	0.11325	1601052.0	1417200.0	798299.0	0.121978	0.573955
     29820.37	0.13139	1856340.0	1643134.0	925720.0	0.122001	0.573789
     29820.88	0.094801	1339637.0	1186227.0	668278.0	0.121621	0.573829
     29821.39	0.11711	1653590.0	1463955.0	825018.0	0.121807	0.573492
     29821.90	0.12748	1802522.0	1595983.0	899469.0	0.121697	0.573441
     29822.42	0.12652	1786116.0	1581279.0	891286.0	0.121809	0.573324
     29822.93	0.12135	1713204.0	1516732.0	855490.0	0.121807	0.572639
     29823.44	0.15534	2190154.0	1939051.0	1093225.0	0.121773	0.573067
     29823.95	0.14618	2063427.0	1826678.0	1030096.0	0.121869	0.572847
     29824.46	0.12385	1743609.0	1543766.0	870617.0	0.121732	0.572778
     29824.97	0.10616	1499141.0	1327663.0	748586.0	0.121472	0.572989
     29825.49	0.12763	1798619.0	1592477.0	898085.0	0.121728	0.572781
     29826.00	0.13411	1894148.0	1676790.0	945924.0	0.121888	0.572474
     29826.51	0.12881	1816028.0	1607966.0	907340.0	0.121682	0.572208
     29827.02	0.12227	1725293.0	1528264.0	862259.0	0.121264	0.572332
     29827.53	0.13784	1946640.0	1723781.0	972728.0	0.121585	0.572171
     29828.04	0.15090	2123681.0	1880730.0	1061835.0	0.121491	0.571661
     29828.56	0.098959	1394032.0	1234853.0	696959.0	0.121248	0.571981
     29829.07	0.13628	1922434.0	1702780.0	960982.0	0.121330	0.572062
     29829.58	0.12857	1815675.0	1608100.0	908019.0	0.121404	0.571543
     29830.09	0.13499	1900832.0	1683622.0	950959.0	0.121344	0.571232
     29830.60	0.13443	1894875.0	1678525.0	948222.0	0.121237	0.571082
     29831.11	0.14033	1977149.0	1751367.0	989186.0	0.121259	0.571270
     29831.63	0.14173	1991294.0	1763862.0	996499.0	0.121279	0.571013
     29832.14	0.12841	1809588.0	1603288.0	905557.0	0.121043	0.571262
     29832.65	0.12217	1715527.0	1519383.0	858868.0	0.121416	0.570444
     29833.16	0.12478	1759192.0	1558718.0	880854.0	0.120991	0.570727
     29833.67	0.12661	1782550.0	1578952.0	892405.0	0.121284	0.570597
     29834.19	0.12132	1701762.0	1507266.0	851806.0	0.121367	0.570694
     29834.70	0.12854	1808581.0	1602477.0	905999.0	0.120992	0.570268
     29835.21	0.12997	1831966.0	1623584.0	917879.0	0.120754	0.570326
     29835.72	0.12873	1814084.0	1607203.0	908711.0	0.121085	0.570224
     29836.23	0.13597	1911344.0	1693406.0	957671.0	0.121065	0.569993
     29836.75	0.11096	1560415.0	1382906.0	781863.0	0.120765	0.570263
     29837.26	0.12726	1781723.0	1578694.0	892770.0	0.120983	0.570024
     29837.77	0.12111	1706031.0	1511727.0	855164.0	0.120917	0.569715
     29838.28	0.12906	1813167.0	1606572.0	908862.0	0.120972	0.569665
     29838.80	0.11288	1591055.0	1410063.0	797835.0	0.120763	0.569488
     29839.31	0.12001	1684892.0	1493331.0	845168.0	0.120692	0.569229
     29839.82	0.12915	1806349.0	1600613.0	906033.0	0.120921	0.569066
     29840.33	0.11426	1603232.0	1421112.0	804622.0	0.120582	0.568822
     29840.84	0.12424	1739277.0	1541338.0	872650.0	0.120819	0.568872
     29841.36	0.12169	1707437.0	1513398.0	857022.0	0.120636	0.568649
     29841.87	0.11699	1635474.0	1449624.0	821270.0	0.120628	0.568208
     29842.38	0.12296	1725918.0	1529845.0	866625.0	0.120593	0.568315
     29842.89	0.13705	1917763.0	1699646.0	963066.0	0.120739	0.568053
     29843.41	0.12016	1679995.0	1489216.0	843400.0	0.120541	0.568564
     29843.92	0.13207	1839278.0	1630521.0	923914.0	0.120474	0.568036
     29844.43	0.11659	1632582.0	1447476.0	820496.0	0.120341	0.567668
     29844.94	0.13790	1928660.0	1709571.0	969024.0	0.120583	0.567708
     29845.46	0.12255	1717782.0	1522950.0	863352.0	0.120385	0.567582
     29845.97	0.12605	1768965.0	1568130.0	889288.0	0.120511	0.567218
     29846.48	0.12414	1743271.0	1545785.0	876537.0	0.120231	0.567308
     29846.99	0.12595	1766570.0	1566266.0	888094.0	0.120345	0.567372
     29847.50	0.12533	1753663.0	1554852.0	882124.0	0.120326	0.566803
     29848.02	0.12230	1717057.0	1522419.0	863163.0	0.120311	0.567452
     29848.53	0.12477	1746459.0	1548453.0	878359.0	0.120334	0.566956
     29849.04	0.12764	1775767.0	1574476.0	893357.0	0.120310	0.566692
     29849.56	0.11901	1656788.0	1469112.0	833456.0	0.120223	0.566833
     29850.07	0.13697	1914539.0	1697652.0	963438.0	0.120231	0.566493
     29850.58	0.12875	1808605.0	1603669.0	910084.0	0.120262	0.566513
     29851.09	0.13127	1828936.0	1621696.0	920491.0	0.120262	0.566321
     29851.61	0.13262	1858278.0	1647759.0	935450.0	0.120234	0.566144
     29852.12	0.12273	1707420.0	1514409.0	859890.0	0.119958	0.565976
     29852.63	0.13335	1832671.0	1625785.0	923101.0	0.119784	0.566007
     29853.14	0.13290	1822652.0	1616452.0	917813.0	0.120059	0.565995
     29853.66	0.12307	1708162.0	1515236.0	860585.0	0.119847	0.565714
     29854.17	0.12078	1666684.0	1478401.0	840142.0	0.119875	0.565145
     29854.68	0.13564	1883304.0	1670659.0	948972.0	0.119810	0.565594
     29855.19	0.12131	1684953.0	1494493.0	849297.0	0.119951	0.565133
     29855.71	0.12495	1729767.0	1534373.0	871952.0	0.119865	0.565143
     29856.22	0.11848	1654088.0	1467227.0	833876.0	0.119876	0.565045
     29856.73	0.13035	1820923.0	1615094.0	918038.0	0.119950	0.564910
     29857.25	0.11700	1624503.0	1441015.0	818958.0	0.119854	0.565070
     29857.76	0.12428	1739349.0	1542870.0	876927.0	0.119867	0.564976
     29858.27	0.11839	1651782.0	1465444.0	833290.0	0.119696	0.564532
     29858.78	0.10836	1508660.0	1338439.0	761211.0	0.119718	0.564349
     29859.30	0.12451	1735575.0	1539552.0	875546.0	0.119847	0.564399
     29859.81	0.11347	1579341.0	1401315.0	796921.0	0.119597	0.564411
     29860.32	0.12528	1741249.0	1544783.0	878755.0	0.119719	0.564133
     29860.84	0.11352	1583495.0	1404783.0	799135.0	0.119752	0.564108
     29861.35	0.10359	1447669.0	1284717.0	731071.0	0.119416	0.563783
     29861.86	0.12751	1782201.0	1581777.0	900065.0	0.119300	0.563837
     29862.37	0.12107	1695238.0	1504335.0	856152.0	0.119472	0.563658
     29862.89	0.12365	1728759.0	1533806.0	872913.0	0.119652	0.563672
     29863.40	0.12729	1772392.0	1573004.0	895493.0	0.119343	0.563368
     29863.91	0.12900	1792876.0	1590854.0	905585.0	0.119550	0.563445
     29864.43	0.13313	1855919.0	1647288.0	937757.0	0.119250	0.563395
     29864.94	0.13253	1846566.0	1638579.0	933279.0	0.119498	0.562880
     29865.45	0.13244	1849833.0	1641392.0	934208.0	0.119551	0.563601
     29865.97	0.12383	1721552.0	1528019.0	870449.0	0.119254	0.562718
     29866.48	0.12537	1751144.0	1554373.0	885302.0	0.119197	0.562899
     29866.99	0.12327	1715926.0	1522752.0	867445.0	0.119434	0.562722
     29867.50	0.13861	1939622.0	1721779.0	980854.0	0.119135	0.562690
     29868.02	0.12952	1806185.0	1603101.0	913140.0	0.119277	0.562806
     29868.53	0.11320	1570345.0	1393854.0	794268.0	0.119223	0.562407
     29869.04	0.14075	1964791.0	1744024.0	993976.0	0.119191	0.562237
     29869.56	0.13054	1826945.0	1622072.0	924557.0	0.118941	0.562145
     29870.07	0.13623	1893450.0	1680282.0	957931.0	0.119439	0.561941
     29870.58	0.14212	1981099.0	1758479.0	1002332.0	0.119203	0.562120
     29871.10	0.12631	1759883.0	1562337.0	890652.0	0.119065	0.561984
     29871.61	0.13212	1842898.0	1635975.0	933104.0	0.119100	0.561478
     29872.12	0.13734	1921615.0	1706022.0	972723.0	0.119002	0.561820
     29872.64	0.12864	1796215.0	1594724.0	909380.0	0.118981	0.561693
     29873.15	0.12831	1795489.0	1594204.0	909017.0	0.118903	0.561766
     29873.66	0.12873	1798915.0	1597425.0	911182.0	0.118791	0.561406
     29874.18	0.13534	1897290.0	1684886.0	961244.0	0.118729	0.561225
     29874.69	0.13132	1835763.0	1630278.0	930004.0	0.118710	0.561317
     29875.20	0.12027	1682150.0	1493827.0	852295.0	0.118731	0.561164
     29875.72	0.12933	1811804.0	1608610.0	917729.0	0.118953	0.561224
     29876.23	0.12739	1777539.0	1578910.0	900819.0	0.118495	0.561186
     29876.74	0.12360	1726820.0	1533406.0	875253.0	0.118790	0.560734
     29877.26	0.12016	1659694.0	1473951.0	841844.0	0.118687	0.560107
     29877.77	0.12759	1773576.0	1575283.0	899137.0	0.118563	0.560755
     29878.29	0.12059	1675278.0	1488251.0	849740.0	0.118378	0.560426
     29878.80	0.12663	1734008.0	1539990.0	879422.0	0.118660	0.560266
     29879.31	0.12247	1686347.0	1497273.0	855054.0	0.118919	0.560236
     29879.83	0.12012	1655883.0	1471108.0	840278.0	0.118319	0.560038
     29880.34	0.12968	1800487.0	1599514.0	913393.0	0.118357	0.560289
     29880.85	0.11940	1665283.0	1479312.0	844924.0	0.118418	0.560086
     29881.37	0.11709	1624868.0	1443126.0	824585.0	0.118615	0.559687
     29881.88	0.11751	1627265.0	1445441.0	825834.0	0.118486	0.559776
     29882.39	0.12113	1668677.0	1482215.0	847207.0	0.118494	0.559348
     29882.91	0.12018	1663172.0	1477403.0	844683.0	0.118441	0.559080
     29883.42	0.12939	1785293.0	1585833.0	905983.0	0.118473	0.559845
     29883.94	0.12199	1693063.0	1504545.0	859774.0	0.118049	0.559576
     29884.45	0.12978	1795340.0	1595271.0	911498.0	0.118151	0.559710
     29884.96	0.13314	1844794.0	1639452.0	937335.0	0.118006	0.559077
     29885.48	0.12964	1804798.0	1603306.0	916603.0	0.118381	0.559149
     29885.99	0.12356	1719650.0	1528221.0	874039.0	0.118016	0.558735
     29886.50	0.12232	1700933.0	1511368.0	864279.0	0.118162	0.558875
     29887.02	0.13405	1864536.0	1656954.0	947560.0	0.118031	0.558846
     29887.53	0.12164	1683776.0	1496192.0	855650.0	0.118116	0.558817
     29888.05	0.12694	1772309.0	1574744.0	900852.0	0.118190	0.558507
     29888.56	0.11721	1634076.0	1452384.0	830563.0	0.117871	0.558858
     29889.07	0.11871	1647455.0	1464398.0	838135.0	0.117787	0.558020
     29889.59	0.14423	2004627.0	1781254.0	1019225.0	0.118140	0.558275
     29890.10	0.10882	1502221.0	1335343.0	763802.0	0.117756	0.558635
     29890.62	0.13740	1896753.0	1685512.0	964826.0	0.118074	0.557877
     29891.13	0.12043	1672117.0	1486013.0	850474.0	0.117994	0.558058
     29891.64	0.13329	1854659.0	1648248.0	943236.0	0.117988	0.558152
     29892.16	0.12311	1712089.0	1521606.0	871011.0	0.117948	0.557867
     29892.67	0.13933	1940566.0	1725264.0	987745.0	0.117600	0.557711
     29893.19	0.12462	1732933.0	1540064.0	881838.0	0.117991	0.557571
     29893.70	0.15300	2131931.0	1895073.0	1085269.0	0.117771	0.557429
     29894.21	0.10451	1455340.0	1293796.0	741058.0	0.117659	0.557257
     29894.73	0.13892	1937259.0	1722529.0	986736.0	0.117481	0.557146
     29895.24	0.11643	1611138.0	1432350.0	820482.0	0.117624	0.557180
     29895.76	0.12509	1735936.0	1543656.0	884754.0	0.117393	0.556599
     29896.27	0.12332	1707586.0	1518248.0	869424.0	0.117524	0.557481
     29896.78	0.12137	1672818.0	1487556.0	852290.0	0.117375	0.556963
     29897.30	0.14161	1967115.0	1749195.0	1002252.0	0.117412	0.556906
     29897.81	0.14304	1968750.0	1750783.0	1003350.0	0.117336	0.556719
     29898.33	0.10937	1517967.0	1349659.0	773648.0	0.117520	0.556490
     29898.84	0.10173	1413237.0	1256672.0	720385.0	0.117416	0.556436
     29899.36	0.12900	1796089.0	1597421.0	915401.0	0.117221	0.556784
     29899.87	0.11171	1548364.0	1376728.0	789324.0	0.117489	0.556288
     29900.38	0.11171	1542496.0	1372140.0	786530.0	0.117030	0.556496
     29900.90	0.12561	1709026.0	1519850.0	871222.0	0.117312	0.556470
     29901.41	0.11950	1657225.0	1473747.0	844871.0	0.117336	0.556379
     29901.93	0.14127	1955947.0	1739252.0	997243.0	0.117419	0.556216
     29902.44	0.12637	1740179.0	1548072.0	888025.0	0.116978	0.555766
     29902.96	0.078664	1086178.0	965990.0	553887.0	0.117267	0.556193
     29903.47	0.11474	1582829.0	1407842.0	807732.0	0.117156	0.555583
     29903.98	0.13006	1810721.0	1610512.0	923925.0	0.117173	0.555677
     29904.50	0.11746	1627380.0	1447431.0	830551.0	0.117181	0.555456
     29905.01	0.13094	1817172.0	1616320.0	927350.0	0.117129	0.555576
     29905.53	0.12626	1756574.0	1562832.0	896704.0	0.116866	0.555529
     29906.04	0.13018	1797831.0	1599252.0	917637.0	0.117045	0.555489
     29906.56	0.14585	2019172.0	1796281.0	1030688.0	0.116969	0.555492
     29907.07	0.11718	1619884.0	1440986.0	826800.0	0.117027	0.555520
     29907.59	0.12178	1678437.0	1493554.0	857438.0	0.116704	0.554965
     29908.10	0.13586	1886077.0	1677692.0	963339.0	0.117080	0.554769
     29908.62	0.11996	1663312.0	1480120.0	849973.0	0.116688	0.554674
     29909.13	0.13687	1905936.0	1695934.0	973814.0	0.116740	0.554769
     29909.64	0.13238	1837636.0	1635182.0	939011.0	0.116726	0.554682
     29910.16	0.19024	2637463.0	2346993.0	1347664.0	0.116683	0.554762
     29910.67	0.096622	1331743.0	1185125.0	680819.0	0.116640	0.554307
     29911.19	0.099834	1379746.0	1227853.0	705369.0	0.116632	0.554301
     29911.70	0.12878	1793497.0	1595726.0	916841.0	0.116839	0.554150
     29912.22	0.13687	1903037.0	1693297.0	972919.0	0.116774	0.554132
     29912.73	0.12945	1794058.0	1596568.0	917514.0	0.116624	0.553944
     29913.25	0.13477	1875151.0	1669143.0	959037.0	0.116379	0.554136
     29913.76	0.13810	1918337.0	1707497.0	981097.0	0.116430	0.554113
     29914.28	0.13906	1935440.0	1722709.0	990501.0	0.116437	0.553442
     29914.79	0.14264	1973010.0	1756055.0	1009578.0	0.116490	0.553537
     29915.31	0.11019	1522731.0	1355328.0	779104.0	0.116462	0.553654
     29915.82	0.12574	1742054.0	1550635.0	891889.0	0.116400	0.553078
     29916.34	0.13020	1805664.0	1607206.0	924185.0	0.116431	0.553340
     29916.85	0.12503	1734826.0	1543976.0	888146.0	0.116546	0.552980
     29917.37	0.12712	1760162.0	1566656.0	900902.0	0.116462	0.553302
     29917.88	0.12276	1701040.0	1514118.0	871088.0	0.116407	0.552845
     29918.40	0.12415	1715471.0	1527644.0	878826.0	0.115961	0.552895
     29918.91	0.13641	1881416.0	1675132.0	963939.0	0.116133	0.552619
     29919.43	0.11245	1563156.0	1391939.0	800518.0	0.116009	0.553194
     29919.94	0.12880	1789312.0	1592860.0	916686.0	0.116300	0.552521
     29920.46	0.12044	1661503.0	1479145.0	851180.0	0.116258	0.552596
     29920.97	0.12428	1697661.0	1511599.0	870200.0	0.116083	0.552200
     29921.49	0.11838	1619524.0	1441992.0	829753.0	0.116107	0.552653
     29922.00	0.12790	1763999.0	1570563.0	904315.0	0.116149	0.552012
     29922.52	0.12403	1716507.0	1528657.0	880464.0	0.115902	0.551696
     29923.03	0.11872	1633630.0	1454588.0	837638.0	0.116082	0.551892
     29923.55	0.11978	1652898.0	1472085.0	847685.0	0.115850	0.551926
     29924.06	0.11835	1621847.0	1444391.0	831850.0	0.115878	0.551791
     29924.58	0.11872	1641234.0	1461733.0	842053.0	0.115826	0.551535
     29925.09	0.13395	1841386.0	1639853.0	944679.0	0.115912	0.551517
     29925.61	0.12596	1739751.0	1549096.0	892197.0	0.116070	0.551740
     29926.12	0.12386	1709853.0	1522864.0	877344.0	0.115815	0.551449
     29926.64	0.12400	1717072.0	1529170.0	880881.0	0.115895	0.551558
     29927.15	0.12681	1762063.0	1569358.0	904802.0	0.115819	0.550706
     29927.67	0.12314	1693329.0	1507742.0	869234.0	0.116083	0.550756
     29928.18	0.13504	1869098.0	1664970.0	959903.0	0.115649	0.550730
     29928.70	0.13163	1814813.0	1616343.0	931570.0	0.115816	0.551050
     29929.21	0.12684	1744779.0	1553938.0	895658.0	0.115836	0.550989
     29929.73	0.11247	1552815.0	1383410.0	797570.0	0.115518	0.550737
     29930.24	0.13459	1858203.0	1655825.0	954532.0	0.115311	0.550833
     29930.76	0.11182	1552675.0	1383151.0	797779.0	0.115615	0.550288
     29931.27	0.12504	1720992.0	1533296.0	884499.0	0.115481	0.550154
     29931.79	0.12631	1747882.0	1557273.0	898334.0	0.115469	0.550150
     29932.31	0.12680	1757625.0	1565924.0	903588.0	0.115487	0.549858
     29932.82	0.13280	1840127.0	1639157.0	945819.0	0.115653	0.549886
     29933.34	0.12492	1732288.0	1543604.0	890805.0	0.115323	0.549750
     29933.85	0.12589	1736746.0	1547707.0	893154.0	0.115239	0.549771
     29934.37	0.12224	1694482.0	1509791.0	871130.0	0.115406	0.549935
     29934.88	0.13870	1925203.0	1715708.0	990212.0	0.115206	0.549662
     29935.40	0.12375	1710413.0	1523940.0	879854.0	0.115436	0.549298
     29935.91	0.13032	1812610.0	1614899.0	932255.0	0.115495	0.549421
     29936.43	0.12319	1708302.0	1522306.0	878924.0	0.115274	0.549283
     29936.94	0.13482	1878782.0	1674262.0	966681.0	0.115251	0.549259
     29937.46	0.11775	1623305.0	1446886.0	835302.0	0.115051	0.549376
     29937.98	0.12789	1773610.0	1580476.0	912740.0	0.115291	0.549030
     29938.49	0.12766	1774301.0	1581396.0	913431.0	0.115099	0.548855
     29939.01	0.12498	1738993.0	1550091.0	895451.0	0.114993	0.548741
     29939.52	0.12125	1685789.0	1502682.0	868028.0	0.114982	0.548783
     29940.04	0.11922	1663551.0	1482641.0	856927.0	0.115130	0.548228
     29940.55	0.12718	1771943.0	1579464.0	912823.0	0.114991	0.548299
     29941.07	0.12838	1788351.0	1593598.0	921390.0	0.115300	0.547866
     29941.59	0.11105	1539472.0	1372402.0	793259.0	0.114877	0.548168
     29942.10	0.11343	1575236.0	1404565.0	811937.0	0.114677	0.548060
     29942.62	0.11874	1652823.0	1473149.0	851923.0	0.115082	0.547661
     29943.13	0.11569	1612322.0	1437694.0	831311.0	0.114635	0.547792
     29943.65	0.11687	1622127.0	1446354.0	836095.0	0.114692	0.548059
     29944.16	0.11752	1636136.0	1458726.0	843162.0	0.114774	0.548160
     29944.68	0.10948	1525430.0	1360000.0	786863.0	0.114792	0.547186
     29945.20	0.11896	1655057.0	1475578.0	853751.0	0.114786	0.547165
     29945.71	0.13156	1830682.0	1632374.0	943887.0	0.114653	0.547784
     29946.23	0.11788	1642992.0	1465457.0	847738.0	0.114352	0.547351
     29946.74	0.13173	1833378.0	1634863.0	945808.0	0.114601	0.547275
     29947.26	0.13032	1818864.0	1621763.0	938362.0	0.114698	0.547133
     29947.78	0.12399	1725649.0	1538753.0	890385.0	0.114631	0.547074
     29948.29	0.12939	1799362.0	1604232.0	928438.0	0.114787	0.546897
     29948.81	0.12692	1765383.0	1574034.0	911315.0	0.114726	0.546508
     29949.32	0.12661	1762910.0	1572174.0	910040.0	0.114506	0.546726
     29949.84	0.13042	1809321.0	1613047.0	934245.0	0.114827	0.546141
     29950.36	0.13319	1850350.0	1650040.0	955350.0	0.114575	0.546477
     29950.87	0.13060	1808987.0	1612989.0	933888.0	0.114678	0.546488
     29951.39	0.12890	1758125.0	1568070.0	907639.0	0.114402	0.546754
     29951.90	0.13257	1809282.0	1613963.0	934691.0	0.114237	0.546232
     29952.42	0.12013	1655166.0	1476278.0	854937.0	0.114377	0.546252
     29952.94	0.13883	1915062.0	1708096.0	989558.0	0.114371	0.545876
     29953.45	0.12980	1798014.0	1603999.0	929322.0	0.114183	0.545800
     29953.97	0.12597	1741376.0	1553286.0	900074.0	0.114303	0.545651
     29954.48	0.13685	1895788.0	1691464.0	980122.0	0.114040	0.545673
     29955.00	0.14339	1991030.0	1776160.0	1029413.0	0.114198	0.545465
     29955.52	0.12385	1714340.0	1529099.0	886236.0	0.114349	0.545451
     29956.03	0.13736	1900427.0	1695406.0	982918.0	0.114156	0.545152
     29956.55	0.12403	1719217.0	1533795.0	889082.0	0.114124	0.545311
     29957.07	0.13115	1820905.0	1624794.0	941917.0	0.113953	0.545219
     29957.58	0.12450	1726227.0	1540136.0	893084.0	0.114067	0.544945
     29958.10	0.13205	1836615.0	1638464.0	950115.0	0.114165	0.544931
     29958.61	0.12353	1717855.0	1532891.0	889116.0	0.113921	0.544683
     29959.13	0.12698	1755393.0	1566416.0	908411.0	0.113903	0.544849
     29959.65	0.12237	1703328.0	1519843.0	881848.0	0.113977	0.544343
     29960.16	0.12524	1744330.0	1556386.0	902749.0	0.114004	0.544677
     29960.68	0.12421	1728198.0	1542047.0	894880.0	0.113968	0.544176
     29961.20	0.13065	1806732.0	1612407.0	935783.0	0.113792	0.544100
     29961.71	0.12614	1751461.0	1563430.0	907328.0	0.113568	0.544133
     29962.23	0.12855	1787911.0	1595838.0	926152.0	0.113649	0.544116
     29962.75	0.12850	1776477.0	1585893.0	920249.0	0.113485	0.544259
     29963.26	0.11296	1565773.0	1397170.0	811099.0	0.113931	0.543814
     29963.78	0.12027	1668988.0	1489233.0	864820.0	0.113956	0.543495
     29964.30	0.12496	1732018.0	1545549.0	897676.0	0.113908	0.543325
     29964.81	0.11674	1610111.0	1437014.0	834450.0	0.113736	0.543550
     29965.33	0.12492	1729852.0	1544008.0	896581.0	0.113654	0.543548
     29965.84	0.12374	1707885.0	1524846.0	885806.0	0.113362	0.543151
     29966.36	0.11652	1619186.0	1445206.0	839632.0	0.113672	0.543043
     29966.88	0.11353	1574386.0	1405394.0	816516.0	0.113548	0.543026
     29967.39	0.13814	1909233.0	1704088.0	989841.0	0.113672	0.543241
     29967.91	0.12522	1725432.0	1540476.0	895220.0	0.113386	0.542777
     29968.43	0.14248	1974102.0	1762026.0	1024068.0	0.113649	0.542681
     29968.94	0.11720	1621296.0	1447317.0	840992.0	0.113514	0.542885
     29969.46	0.12417	1719757.0	1535547.0	892567.0	0.113296	0.542540
     29969.98	0.13179	1813799.0	1619253.0	941437.0	0.113459	0.542313
     29970.49	0.12710	1755550.0	1567189.0	911037.0	0.113499	0.542455
     29971.01	0.12360	1711203.0	1528257.0	888701.0	0.113069	0.542122
     29971.53	0.12559	1741009.0	1554862.0	904182.0	0.113078	0.542111
     29972.04	0.12783	1766741.0	1577529.0	917183.0	0.113277	0.542308
     29972.56	0.13871	1914558.0	1709597.0	994299.0	0.113229	0.541975
     29973.08	0.099507	1369710.0	1223178.0	711497.0	0.113147	0.541836
     29973.60	0.13032	1794854.0	1603127.0	932480.0	0.112968	0.541864
     29974.11	0.12657	1741880.0	1555272.0	905151.0	0.113315	0.541304
     29974.63	0.11340	1560007.0	1393005.0	810349.0	0.113227	0.541754
     29975.15	0.14086	1933557.0	1726837.0	1004793.0	0.113070	0.541510
     29975.66	0.13411	1858387.0	1659688.0	965765.0	0.113079	0.541464
     29976.18	0.11939	1649616.0	1473374.0	857723.0	0.112988	0.541029
     29976.70	0.17226	2382743.0	2127758.0	1238369.0	0.113184	0.541274
     29977.21	0.090331	1252224.0	1118446.0	650985.0	0.112981	0.541209
     29977.73	0.12913	1782237.0	1592282.0	927113.0	0.112701	0.540848
     29978.25	0.12459	1723124.0	1538950.0	896206.0	0.113039	0.540685
     29978.76	0.12469	1720627.0	1537202.0	894919.0	0.112725	0.540986
     29979.28	0.12874	1767019.0	1578406.0	919186.0	0.112878	0.540682
     29979.80	0.13748	1887571.0	1686311.0	982539.0	0.112748	0.540159
     29980.32	0.12588	1729422.0	1544867.0	899841.0	0.112849	0.540475
     29980.83	0.19063	2629678.0	2349703.0	1368895.0	0.112572	0.540285
     29981.35	0.088070	1218101.0	1088362.0	634387.0	0.112619	0.539770
     29981.87	0.11023	1517728.0	1355939.0	790163.0	0.112720	0.540010
     29982.38	0.11143	1524666.0	1361935.0	794013.0	0.112869	0.539562
     29982.90	0.10239	1396821.0	1248235.0	727473.0	0.112468	0.539909
     29983.42	0.11406	1569977.0	1402625.0	817311.0	0.112715	0.540081
     29983.94	0.15176	2065287.0	1845587.0	1075942.0	0.112472	0.539601
     29984.45	0.11647	1601254.0	1430822.0	833937.0	0.112538	0.539847
     29984.97	0.15006	2057662.0	1838455.0	1071890.0	0.112645	0.539502
     29985.49	0.080348	1110218.0	992217.0	578193.0	0.112370	0.540034
     29986.00	0.10166	1399738.0	1250766.0	729221.0	0.112529	0.539535
     29986.52	0.10999	1518302.0	1356450.0	791126.0	0.112722	0.539169
     29987.04	0.11042	1515740.0	1354352.0	789926.0	0.112581	0.539139
     29987.56	0.12587	1737286.0	1552654.0	905389.0	0.112358	0.539356
     29988.07	0.12401	1714555.0	1532587.0	893871.0	0.112196	0.539151
     29988.59	0.14109	1942280.0	1735907.0	1012515.0	0.112332	0.539093
     29989.11	0.20807	2873092.0	2568101.0	1498405.0	0.112222	0.538766
     29989.63	0.082571	1140924.0	1019918.0	595076.0	0.112116	0.538788
     29990.14	0.098288	1361097.0	1216351.0	709824.0	0.112436	0.538594
     29990.66	0.11686	1612632.0	1441288.0	840880.0	0.112330	0.538843
     29991.18	0.12509	1724898.0	1541792.0	900118.0	0.112223	0.538175
     29991.70	0.13523	1871999.0	1673430.0	976780.0	0.112131	0.538369
     29992.21	0.13182	1825618.0	1632239.0	952734.0	0.111966	0.538372
     29992.73	0.12293	1701569.0	1521070.0	887830.0	0.112137	0.538389
     29993.25	0.19623	2713020.0	2425203.0	1415649.0	0.112147	0.538327
     29993.77	0.10381	1436665.0	1284510.0	750050.0	0.111947	0.537993
     29994.28	0.10086	1394786.0	1246862.0	728328.0	0.112111	0.537634
     29994.80	0.11493	1588701.0	1420187.0	829541.0	0.112128	0.537671
     29995.32	0.13837	1900117.0	1698719.0	992399.0	0.112041	0.537504
     29995.84	0.12557	1734279.0	1550616.0	905774.0	0.111939	0.537618
     29996.35	0.14786	2045669.0	1829478.0	1068762.0	0.111694	0.537530
     29996.87	0.14700	2034599.0	1819653.0	1063158.0	0.111653	0.537402
     29997.39	0.17633	2435113.0	2177915.0	1272711.0	0.111625	0.537219
     29997.91	0.085446	1180330.0	1055744.0	616990.0	0.111548	0.537148
     29998.42	0.10671	1465133.0	1310348.0	765882.0	0.111653	0.537020
     29998.94	0.12954	1783724.0	1595340.0	932445.0	0.111616	0.537032
     29999.46	0.13240	1824351.0	1631508.0	953341.0	0.111720	0.537287
     29999.98	0.12185	1672247.0	1495422.0	874158.0	0.111760	0.536903
     30000.50	0.13140	1808719.0	1617583.0	945517.0	0.111686	0.536956
     30001.01	0.12805	1755069.0	1569373.0	917367.0	0.111832	0.536924
     30001.53	0.12196	1675115.0	1498020.0	875879.0	0.111738	0.536672
     30002.05	0.12428	1703758.0	1523728.0	891167.0	0.111676	0.536383
     30002.57	0.12756	1746027.0	1561796.0	913893.0	0.111506	0.535878
     30003.08	0.12526	1729628.0	1547260.0	904994.0	0.111421	0.536313
     30003.60	0.12269	1688942.0	1510340.0	883589.0	0.111768	0.536098
     30004.12	0.13088	1797345.0	1607985.0	940516.0	0.111329	0.536308
     30004.64	0.11589	1598289.0	1429670.0	836607.0	0.111490	0.535845
     30005.16	0.11624	1595185.0	1426724.0	834867.0	0.111609	0.535864
     30005.67	0.12565	1732038.0	1549423.0	906616.0	0.111416	0.535919
     30006.19	0.12108	1667480.0	1491708.0	872897.0	0.111392	0.535859
     30006.71	0.12145	1662824.0	1487325.0	870592.0	0.111538	0.535561
     30007.23	0.12014	1638991.0	1466390.0	858288.0	0.111277	0.535619
     30007.75	0.12541	1722360.0	1541168.0	902125.0	0.111155	0.535543
     30008.26	0.10987	1507844.0	1349020.0	790024.0	0.111302	0.535070
     30008.78	0.13105	1803248.0	1613506.0	944390.0	0.111180	0.535626
     30009.30	0.12629	1728416.0	1546567.0	905547.0	0.111168	0.535254
     30009.82	0.12636	1710081.0	1530324.0	896081.0	0.111061	0.535204
     30010.34	0.14041	1913918.0	1712299.0	1002876.0	0.111316	0.534965
     30010.86	0.12156	1662846.0	1487905.0	871161.0	0.111162	0.535298
     30011.37	0.14573	1999222.0	1788908.0	1047723.0	0.111153	0.534986
     30011.89	0.12344	1691185.0	1513200.0	886575.0	0.111203	0.534616
     30012.41	0.11785	1603931.0	1434936.0	840618.0	0.111337	0.534738
     30012.93	0.13652	1868468.0	1672202.0	979683.0	0.110978	0.534668
     30013.45	0.11557	1590317.0	1423462.0	833775.0	0.110841	0.534884
     30013.96	0.12218	1660018.0	1485730.0	870665.0	0.110922	0.534404
     30014.48	0.12438	1693653.0	1515789.0	888407.0	0.110952	0.534261
     30015.00	0.12505	1714401.0	1534491.0	899308.0	0.110865	0.534328
     30015.52	0.12136	1668658.0	1493573.0	875119.0	0.110848	0.534567
     30016.04	0.13094	1799185.0	1610447.0	943670.0	0.110822	0.534491
     30016.56	0.13815	1884421.0	1687277.0	988920.0	0.110505	0.534258
     30017.07	0.12102	1659944.0	1485980.0	871527.0	0.110709	0.533583
     30017.59	0.13867	1900100.0	1701359.0	997813.0	0.110479	0.533617
     30018.11	0.12367	1695247.0	1517582.0	889849.0	0.110710	0.533822
     30018.63	0.12546	1713850.0	1534113.0	899503.0	0.110790	0.533865
     30019.15	0.12587	1730761.0	1549618.0	909128.0	0.110553	0.533278
     30019.67	0.13608	1871625.0	1676184.0	983139.0	0.110287	0.533525
     30020.18	0.11654	1598546.0	1431013.0	839725.0	0.110712	0.533063
     30020.70	0.12922	1766142.0	1581265.0	927657.0	0.110572	0.533318
     30021.22	0.13640	1866937.0	1671236.0	980708.0	0.110736	0.533044
     30021.74	0.11983	1640337.0	1468579.0	861769.0	0.110606	0.533063
     30022.26	0.12042	1652814.0	1479432.0	868511.0	0.110821	0.532633
     30022.78	0.11456	1570452.0	1406194.0	825480.0	0.110477	0.532677
     30023.30	0.13508	1853157.0	1659722.0	974488.0	0.110241	0.532493
     30023.81	0.11198	1535983.0	1374981.0	807566.0	0.110731	0.532170
     30024.33	0.11785	1612682.0	1444106.0	847932.0	0.110408	0.532445
     30024.85	0.12227	1672385.0	1497372.0	879108.0	0.110539	0.532559
     30025.37	0.14770	2010509.0	1800094.0	1057360.0	0.110549	0.532064
     30025.89	0.092101	1260411.0	1129119.0	662928.0	0.110000	0.532527
     30026.41	0.10268	1394807.0	1249147.0	733755.0	0.110295	0.532041
     30026.93	0.11419	1564838.0	1401808.0	823373.0	0.110019	0.532109
     30027.44	0.11993	1641865.0	1470329.0	863856.0	0.110347	0.531835
     30027.96	0.11876	1617875.0	1449256.0	851743.0	0.110063	0.531521
     30028.48	0.13001	1779542.0	1593643.0	936706.0	0.110333	0.531408
     30029.00	0.13048	1785364.0	1599279.0	939801.0	0.110069	0.531640
     30029.52	0.14007	1915808.0	1716176.0	1009009.0	0.110041	0.531130
     30030.04	0.11434	1567669.0	1404231.0	825422.0	0.110100	0.531350
     30030.56	0.12850	1759974.0	1576589.0	926725.0	0.110035	0.531362
     30031.08	0.12312	1682955.0	1507730.0	886525.0	0.109946	0.531051
     30031.60	0.12246	1677644.0	1502853.0	883438.0	0.110025	0.531299
     30032.11	0.13250	1804891.0	1617203.0	950976.0	0.109802	0.530965
     30032.63	0.13008	1770855.0	1586809.0	933123.0	0.109737	0.530943
     30033.15	0.15793	2158404.0	1933703.0	1137134.0	0.109932	0.530926
     30033.67	0.13526	1845165.0	1653008.0	972193.0	0.109972	0.530798
     30034.19	0.090319	1234183.0	1106025.0	650762.0	0.109637	0.530384
     30034.71	0.12907	1760355.0	1577182.0	927753.0	0.109876	0.530629
     30035.23	0.13780	1883777.0	1687693.0	992855.0	0.109916	0.530533
     30035.75	0.13257	1814761.0	1626583.0	957074.0	0.109472	0.530356
     30036.27	0.12992	1774760.0	1590523.0	936033.0	0.109602	0.530167
     30036.78	0.14185	1943623.0	1741882.0	1025032.0	0.109588	0.530242
     30037.30	0.12912	1756964.0	1574719.0	927007.0	0.109510	0.529871
     30037.82	0.14398	1964373.0	1760721.0	1036482.0	0.109450	0.529891
     30038.34	0.11598	1575202.0	1411954.0	831251.0	0.109409	0.529798
     30038.86	0.13296	1793831.0	1607675.0	946622.0	0.109565	0.529644
     30039.38	0.12905	1754293.0	1572330.0	926124.0	0.109507	0.529306
     30039.90	0.13298	1805910.0	1619207.0	953363.0	0.109128	0.529696
     30040.42	0.12685	1730662.0	1551423.0	913702.0	0.109331	0.529423
     30040.94	0.12029	1631433.0	1462778.0	861621.0	0.109121	0.529277
     30041.46	0.13358	1822429.0	1633815.0	962516.0	0.109252	0.529122
     30041.98	0.12340	1687819.0	1512550.0	891162.0	0.109640	0.529026
     30042.50	0.11930	1625978.0	1457803.0	858687.0	0.109179	0.529281
     30043.01	0.12142	1643028.0	1472621.0	867720.0	0.109497	0.528930
     30043.53	0.13598	1838255.0	1647988.0	971292.0	0.109262	0.528683
     30044.05	0.12446	1682206.0	1508498.0	889120.0	0.108992	0.528638
     30044.57	0.12877	1742524.0	1562300.0	920879.0	0.109176	0.528586
     30045.09	0.11404	1546023.0	1386643.0	817007.0	0.108800	0.528993
     30045.61	0.12110	1654246.0	1483154.0	874631.0	0.109174	0.528124
     30046.13	0.12270	1663042.0	1491226.0	879408.0	0.109050	0.528105
     30046.65	0.12491	1676860.0	1503600.0	886409.0	0.109061	0.528439
     30047.17	0.11928	1624807.0	1457438.0	859588.0	0.108709	0.527982
     30047.69	0.11632	1582488.0	1419350.0	836944.0	0.108799	0.528197
     30048.21	0.12588	1702465.0	1526938.0	900360.0	0.108813	0.528225
     30048.73	0.11731	1595672.0	1430996.0	844282.0	0.108924	0.527639
     30049.25	0.12851	1739214.0	1559908.0	920392.0	0.108806	0.527582
