# DIAMOND LIGHT SOURCE
# Instrument: I20-XAS Date: Thu, 11 Oct 2018 12:57:46 BST
# Ring energy: 3.00093 GeV
# Initial ring current: 298.62302 mA
# Filling mode: Standby
# Wiggler gap selected: 20.00000 mm
#  
# Primary slits:  vertical gap= 0.10007 mrad; horizontal gap= 0.70012 mrad; vertical offset= 0.02495 mrad; horizontal offset= 0.00007 mrad
# Secondary slits:  vertical gap= 6.99800 mm; horizontal gap= 25.00000 mm; vertical offset= 1.29900 mm; horizontal offset= -0.00300 mm
# Experimental slits:  vertical gap= 1.50014 mm; horizontal gap= 5.00002 mm; vertical offset= 2.60000 mm; horizontal offset= -2.80000 mm
#  
# Optic Hutch Mirrors Coating: Rhodium
# Monochromator crystal cut: Si(111)
# Incident angle for Harmonic Rejection Mirrors: -6.35 mrad
# hrmcoating	
# I0 Stanford sensitivity: 1 uA/V Offsets: 5 nA
# It Stanford sensitivity: 1 uA/V Offsets: 5 nA
# Iref Stanford sensitivity: 2 uA/V Offsets: 5 nA
# I1 Stanford sensitivity: 2 uA/V Offsets: 10 nA
#  
#  
# Atn5 (Xia) filters: Al 0.2 mm Out Al 0.5 mm Out Al 1.0 mm Out Al 3.0 mm Out
# Sample stage: x: 0.00 mm y: 22.00 mm z: -2.20 mm rot: 45.00 deg fine_rot: 0.00 deg
#
# Ascii output file name: 'Experiment_1/ascii/XES_MnO2_1.5mg_104858_1.dat'
# Nexus output file: '/dls/i20/data/2018/sp20129-1/Experiment_1/nexus/104858_1.nxs'
# XML folder and files:
# /dls/i20/data/2018/sp20129-1/xml/Experiment_1/
# XES_Parameters
# XESDetector_Parameters
# Sample_Parameters_XES_sample
# Output_Parameters
# The contents of these files are also stored in the nexus file.
#
# Sample name: XES_MnO2_1.5mg
# Sample description: MnO2
# Additional comments: 1.5 mg
# command: scan XESEnergy 6460.0 6500.0 0.3 bragg1WithOffset 6800.0 XESBragg I1 medipix XAS Progress Updater
#
#
#
# Dark current intensity (Hz), collected over 2.00s: I1 636.50
# Dark current has been automatically removed from counts in main scan (I1)
#
# Energy          	Ef              	XESBragg        	I1              	FF              	FF/I1           	Time            	
6799.9992       	6459.9900       	73.6276         	969967.50       	1075.000000     	0.001108        	2.0000          	
6800.0008       	6460.3000       	73.6185         	969829.50       	1173.000000     	0.001209        	2.0000          	
6799.9994       	6460.6000       	73.6095         	969820.50       	1273.000000     	0.001313        	2.0000          	
6799.9999       	6460.9000       	73.6004         	969742.50       	1253.000000     	0.001292        	2.0000          	
6799.9992       	6461.2000       	73.5914         	969641.50       	1257.000000     	0.001296        	2.0000          	
6799.9998       	6461.5000       	73.5823         	969670.50       	1310.000000     	0.001351        	2.0000          	
6800.0003       	6461.8000       	73.5733         	969647.50       	1354.000000     	0.001396        	2.0000          	
6800.0002       	6462.1000       	73.5643         	969521.50       	1344.000000     	0.001386        	2.0000          	
6800.0008       	6462.4000       	73.5553         	969519.50       	1451.000000     	0.001497        	2.0000          	
6799.9996       	6462.7000       	73.5463         	969461.50       	1503.000000     	0.001550        	2.0000          	
6800.0005       	6463.0000       	73.5373         	969375.50       	1524.000000     	0.001572        	2.0000          	
6799.9997       	6463.3000       	73.5283         	969259.50       	1582.000000     	0.001632        	2.0000          	
6800.0007       	6463.6000       	73.5193         	969090.50       	1662.000000     	0.001715        	2.0000          	
6800.0000       	6463.9000       	73.5103         	969072.50       	1693.000000     	0.001747        	2.0000          	
6800.0000       	6464.2000       	73.5013         	968955.50       	1798.000000     	0.001856        	2.0000          	
6800.0010       	6464.5000       	73.4923         	968912.50       	1837.000000     	0.001896        	2.0000          	
6800.0004       	6464.8000       	73.4834         	968963.50       	1818.000000     	0.001876        	2.0000          	
6800.0002       	6465.1000       	73.4744         	968698.50       	2002.000000     	0.002067        	2.0000          	
6799.9996       	6465.4000       	73.4654         	968708.50       	1957.000000     	0.002020        	2.0000          	
6799.9999       	6465.7000       	73.4565         	968552.50       	2059.000000     	0.002126        	2.0000          	
6799.9999       	6466.0000       	73.4475         	968569.50       	2240.000000     	0.002313        	2.0000          	
6800.0008       	6466.3000       	73.4386         	968464.50       	2283.000000     	0.002357        	2.0000          	
6800.0005       	6466.6000       	73.4297         	968384.50       	2412.000000     	0.002491        	2.0000          	
6799.9997       	6466.9000       	73.4207         	968349.50       	2387.000000     	0.002465        	2.0000          	
6799.9996       	6467.2000       	73.4118         	968410.50       	2638.000000     	0.002724        	2.0000          	
6800.0002       	6467.5000       	73.4029         	968364.50       	2670.000000     	0.002757        	2.0000          	
6800.0005       	6467.8000       	73.3940         	968296.50       	2819.000000     	0.002911        	2.0000          	
6800.0000       	6468.1000       	73.3851         	968190.50       	2851.000000     	0.002945        	2.0000          	
6800.0003       	6468.4000       	73.3762         	968208.50       	3074.000000     	0.003175        	2.0000          	
6800.0008       	6468.7000       	73.3673         	967977.50       	3217.000000     	0.003323        	2.0000          	
6799.9998       	6469.0000       	73.3584         	967987.50       	3372.000000     	0.003484        	2.0000          	
6800.0004       	6469.3000       	73.3495         	967817.50       	3534.000000     	0.003652        	2.0000          	
6800.0002       	6469.6000       	73.3406         	967664.50       	3764.000000     	0.003890        	2.0000          	
6799.9998       	6469.9000       	73.3317         	967653.50       	3963.000000     	0.004095        	2.0000          	
6800.0005       	6470.2000       	73.3229         	967626.50       	4115.000000     	0.004253        	2.0000          	
6799.9993       	6470.5000       	73.3140         	981137.50       	4400.000000     	0.004485        	2.0000          	
6800.0002       	6470.8000       	73.3051         	981100.50       	4574.000000     	0.004662        	2.0000          	
6800.0006       	6471.1000       	73.2963         	981043.50       	4767.000000     	0.004859        	2.0000          	
6799.9999       	6471.4000       	73.2874         	980874.50       	5153.000000     	0.005253        	2.0000          	
6800.0003       	6471.7000       	73.2786         	980812.50       	5274.000000     	0.005377        	2.0000          	
6800.0003       	6472.0000       	73.2698         	980830.50       	5393.000000     	0.005498        	2.0000          	
6799.9992       	6472.3000       	73.2609         	980559.50       	5641.000000     	0.005753        	2.0000          	
6799.9994       	6472.6000       	73.2521         	980455.50       	5970.000000     	0.006089        	2.0000          	
6799.9999       	6472.9000       	73.2433         	980533.50       	5994.000000     	0.006113        	2.0000          	
6800.0000       	6473.2000       	73.2345         	980606.50       	6323.000000     	0.006448        	2.0000          	
6800.0003       	6473.5000       	73.2256         	980567.50       	6401.000000     	0.006528        	2.0000          	
6800.0007       	6473.8000       	73.2168         	980447.50       	6679.000000     	0.006812        	2.0000          	
6799.9996       	6474.1000       	73.2080         	980521.50       	6835.000000     	0.006971        	2.0000          	
6800.0002       	6474.4000       	73.1992         	980399.50       	6903.000000     	0.007041        	2.0000          	
6799.9999       	6474.7000       	73.1905         	980379.50       	7181.000000     	0.007325        	2.0000          	
6799.9999       	6475.0000       	73.1817         	980414.50       	7238.000000     	0.007383        	2.0000          	
6800.0006       	6475.3000       	73.1729         	980389.50       	7247.000000     	0.007392        	2.0000          	
6799.9996       	6475.6000       	73.1641         	980528.50       	7331.000000     	0.007477        	2.0000          	
6800.0004       	6475.9000       	73.1553         	980594.50       	7323.000000     	0.007468        	2.0000          	
6800.0004       	6476.2000       	73.1466         	980483.50       	7241.000000     	0.007385        	2.0000          	
6800.0002       	6476.5000       	73.1378         	980628.50       	7400.000000     	0.007546        	2.0000          	
6799.9998       	6476.8000       	73.1291         	980600.50       	7480.000000     	0.007628        	2.0000          	
6799.9995       	6477.1000       	73.1203         	980448.50       	7373.000000     	0.007520        	2.0000          	
6799.9996       	6477.4000       	73.1116         	980530.50       	7554.000000     	0.007704        	2.0000          	
6799.9988       	6477.7000       	73.1028         	980585.50       	7274.000000     	0.007418        	2.0000          	
6800.0005       	6478.0000       	73.0941         	980509.50       	7305.000000     	0.007450        	2.0000          	
6800.0004       	6478.3000       	73.0854         	980513.50       	7550.000000     	0.007700        	2.0000          	
6799.9996       	6478.6000       	73.0767         	980596.50       	7406.000000     	0.007553        	2.0000          	
6799.9987       	6478.9000       	73.0679         	980488.50       	7547.000000     	0.007697        	2.0000          	
6799.9999       	6479.2000       	73.0592         	980488.50       	7497.000000     	0.007646        	2.0000          	
6800.0005       	6479.5000       	73.0505         	980479.50       	7643.000000     	0.007795        	2.0000          	
6800.0004       	6479.8000       	73.0418         	980522.50       	7667.000000     	0.007819        	2.0000          	
6799.9997       	6480.1000       	73.0331         	980418.50       	7827.000000     	0.007983        	2.0000          	
6800.0010       	6480.4000       	73.0244         	980393.50       	7830.000000     	0.007987        	2.0000          	
6799.9991       	6480.7000       	73.0157         	980323.50       	7952.000000     	0.008112        	2.0000          	
6800.0002       	6481.0000       	73.0071         	980354.50       	7954.000000     	0.008113        	2.0000          	
6799.9995       	6481.3000       	72.9984         	980431.50       	8192.000000     	0.008356        	2.0000          	
6800.0006       	6481.6000       	72.9897         	980433.50       	8453.000000     	0.008622        	2.0000          	
6800.0003       	6481.9000       	72.9810         	980246.50       	8524.000000     	0.008696        	2.0000          	
6799.9996       	6482.2000       	72.9724         	980389.50       	8900.000000     	0.009078        	2.0000          	
6800.0005       	6482.5000       	72.9637         	980437.50       	9259.000000     	0.009444        	2.0000          	
6800.0004       	6482.8000       	72.9551         	980388.50       	9740.000000     	0.009935        	2.0000          	
6799.9998       	6483.1000       	72.9464         	980441.50       	9932.000000     	0.010130        	2.0000          	
6799.9994       	6483.4000       	72.9378         	980405.50       	10551.000000    	0.010762        	2.0000          	
6800.0003       	6483.7000       	72.9292         	980323.50       	11190.000000    	0.011415        	2.0000          	
6799.9996       	6484.0000       	72.9205         	980362.50       	11621.000000    	0.011854        	2.0000          	
6800.0000       	6484.3000       	72.9119         	980353.50       	12241.000000    	0.012486        	2.0000          	
6799.9995       	6484.6000       	72.9033         	980254.50       	12972.000000    	0.013233        	2.0000          	
6799.9999       	6484.9000       	72.8947         	980165.50       	13493.000000    	0.013766        	2.0000          	
6799.9997       	6485.2000       	72.8861         	980196.50       	14757.000000    	0.015055        	2.0000          	
6800.0004       	6485.5000       	72.8775         	980098.50       	15537.000000    	0.015852        	2.0000          	
6800.0008       	6485.8000       	72.8689         	980032.50       	16585.000000    	0.016923        	2.0000          	
6800.0002       	6486.1000       	72.8603         	980107.50       	17797.000000    	0.018158        	2.0000          	
6800.0005       	6486.4000       	72.8517         	980017.50       	19383.000000    	0.019778        	2.0000          	
6800.0003       	6486.7000       	72.8431         	979994.50       	20948.000000    	0.021376        	2.0000          	
6800.0000       	6487.0000       	72.8345         	979999.50       	22464.000000    	0.022922        	2.0000          	
6799.9995       	6487.3000       	72.8259         	979895.50       	24431.000000    	0.024932        	2.0000          	
6800.0013       	6487.6000       	72.8174         	979938.50       	26755.000000    	0.027303        	2.0000          	
6799.9992       	6487.9000       	72.8088         	979864.50       	29440.000000    	0.030045        	2.0000          	
6799.9999       	6488.2000       	72.8002         	979869.50       	32409.000000    	0.033075        	2.0000          	
6800.0000       	6488.5000       	72.7917         	979808.50       	35997.000000    	0.036739        	2.0000          	
6800.0004       	6488.8000       	72.7831         	979798.50       	39854.000000    	0.040676        	2.0000          	
6799.9995       	6489.1000       	72.7746         	979751.50       	44057.000000    	0.044968        	2.0000          	
6799.9997       	6489.4000       	72.7660         	979685.50       	47349.000000    	0.048331        	2.0000          	
6799.9998       	6489.7000       	72.7575         	979618.50       	50096.000000    	0.051138        	2.0000          	
6800.0003       	6490.0000       	72.7490         	979530.50       	52448.000000    	0.053544        	2.0000          	
6799.9996       	6490.3000       	72.7404         	979534.50       	52438.000000    	0.053534        	2.0000          	
6800.0005       	6490.6000       	72.7319         	979464.50       	50138.000000    	0.051189        	2.0000          	
6800.0004       	6490.9000       	72.7234         	979372.50       	46851.000000    	0.047838        	2.0000          	
6800.0005       	6491.2000       	72.7149         	979359.50       	42775.000000    	0.043677        	2.0000          	
6800.0010       	6491.5000       	72.7064         	979244.50       	37216.000000    	0.038005        	2.0000          	
6799.9991       	6491.8000       	72.6979         	979215.50       	31526.000000    	0.032195        	2.0000          	
6800.0006       	6492.1000       	72.6894         	979193.50       	25937.000000    	0.026488        	2.0000          	
6800.0002       	6492.4000       	72.6809         	979129.50       	22061.000000    	0.022531        	2.0000          	
6800.0006       	6492.7000       	72.6724         	979063.50       	18432.000000    	0.018826        	2.0000          	
6800.0004       	6493.0000       	72.6639         	979009.50       	15306.000000    	0.015634        	2.0000          	
6800.0006       	6493.3000       	72.6554         	978965.50       	13029.000000    	0.013309        	2.0000          	
6800.0005       	6493.6000       	72.6470         	978886.50       	11219.000000    	0.011461        	2.0000          	
6799.9998       	6493.9000       	72.6385         	978820.50       	9336.000000     	0.009538        	2.0000          	
6800.0006       	6494.2000       	72.6300         	978737.50       	8120.000000     	0.008296        	2.0000          	
6799.9999       	6494.5000       	72.6216         	978701.50       	7104.000000     	0.007259        	2.0000          	
6799.9993       	6494.8000       	72.6131         	978631.50       	6338.000000     	0.006476        	2.0000          	
6800.0002       	6495.1000       	72.6047         	978558.50       	5635.000000     	0.005758        	2.0000          	
6799.9994       	6495.4000       	72.5962         	978476.50       	5109.000000     	0.005221        	2.0000          	
6799.9994       	6495.7000       	72.5878         	978415.50       	4544.000000     	0.004644        	2.0000          	
6800.0000       	6496.0000       	72.5793         	978383.50       	4108.000000     	0.004199        	2.0000          	
6799.9987       	6496.3000       	72.5709         	978287.50       	3909.000000     	0.003996        	2.0000          	
6800.0006       	6496.6000       	72.5625         	978228.50       	3536.000000     	0.003615        	2.0000          	
6799.9998       	6496.9000       	72.5541         	978187.50       	3263.000000     	0.003336        	2.0000          	
6800.0000       	6497.2000       	72.5457         	978093.50       	3066.000000     	0.003135        	2.0000          	
6800.0005       	6497.5000       	72.5372         	978018.50       	2770.000000     	0.002832        	2.0000          	
6800.0003       	6497.8000       	72.5288         	977968.50       	2588.000000     	0.002646        	2.0000          	
6799.9996       	6498.1000       	72.5204         	977904.50       	2433.000000     	0.002488        	2.0000          	
6800.0000       	6498.4000       	72.5120         	977868.50       	2328.000000     	0.002381        	2.0000          	
6800.0003       	6498.7000       	72.5036         	977773.50       	2192.000000     	0.002242        	2.0000          	
6799.9998       	6499.0000       	72.4953         	977723.50       	2132.000000     	0.002181        	2.0000          	
6799.9991       	6499.3000       	72.4869         	977591.50       	1988.000000     	0.002034        	2.0000          	
6799.9996       	6499.6000       	72.4785         	977512.50       	1978.000000     	0.002024        	2.0000          	
6800.0004       	6499.9000       	72.4701         	977474.50       	1866.000000     	0.001909        	2.0000          	
# Instrument: I20-XAS Date: Thu, 11 Oct 2018 13:06:32 BST
# Final ring current: 299.22672
