# DIAMOND LIGHT SOURCE
# Instrument: I20-XAS Date: Wed, 10 Oct 2018 21:27:31 BST
# Ring energy: 3.00089 GeV
# Initial ring current: 298.73301 mA
# Filling mode: Standby
# Wiggler gap selected: 20.00000 mm
#  
# Primary slits:  vertical gap= 0.10007 mrad; horizontal gap= 0.70012 mrad; vertical offset= 0.02495 mrad; horizontal offset= 0.00007 mrad
# Secondary slits:  vertical gap= 6.99800 mm; horizontal gap= 25.00000 mm; vertical offset= 1.29900 mm; horizontal offset= -0.00300 mm
# Experimental slits:  vertical gap= 1.50014 mm; horizontal gap= 5.00002 mm; vertical offset= 2.60000 mm; horizontal offset= -2.80000 mm
#  
# Optic Hutch Mirrors Coating: Rhodium
# Monochromator crystal cut: Si(111)
# Incident angle for Harmonic Rejection Mirrors: -6.35 mrad
# hrmcoating	
# I0 Stanford sensitivity: 1 uA/V Offsets: 5 nA
# It Stanford sensitivity: 1 uA/V Offsets: 5 nA
# Iref Stanford sensitivity: 2 uA/V Offsets: 5 nA
# I1 Stanford sensitivity: 2 uA/V Offsets: 10 nA
#  
#  
# Atn5 (Xia) filters: Al 0.2 mm Out Al 0.5 mm Out Al 1.0 mm Out Al 3.0 mm Out
# Sample stage: x: 0.00 mm y: 21.00 mm z: -1.30 mm rot: 45.00 deg fine_rot: 0.00 deg
#
# Ascii output file name: 'Experiment_1/ascii/XES_LMOA8_104733_1.dat'
# Nexus output file: '/dls/i20/data/2018/sp20129-1/Experiment_1/nexus/104733_1.nxs'
# XML folder and files:
# /dls/i20/data/2018/sp20129-1/xml/Experiment_1/
# XES_Parameters
# XESDetector_Parameters
# Sample_Parameters_XES_sample
# Output_Parameters
# The contents of these files are also stored in the nexus file.
#
# Sample name: XES_LMOA8
# Sample description: Time 4 h ball milling
# Additional comments: LaMnO3
# Additional comments: 24 mg
# command: scan XESEnergy 6460.0 6500.0 0.3 bragg1WithOffset 6800.0 XESBragg I1 medipix XAS Progress Updater
#
#
#
# Dark current intensity (Hz), collected over 2.00s: I1 629.00
# Dark current has been automatically removed from counts in main scan (I1)
#
# Energy          	Ef              	XESBragg        	I1              	FF              	FF/I1           	Time            	
6800.0003       	6459.9900       	73.6276         	975520.00       	1032.000000     	0.001058        	2.0000          	
6799.9995       	6460.3000       	73.6185         	975340.00       	1063.000000     	0.001090        	2.0000          	
6799.9997       	6460.6000       	73.6095         	975378.00       	1054.000000     	0.001081        	2.0000          	
6800.0006       	6460.9000       	73.6004         	975297.00       	1100.000000     	0.001128        	2.0000          	
6799.9998       	6461.2000       	73.5914         	975251.00       	1168.000000     	0.001198        	2.0000          	
6799.9997       	6461.5000       	73.5823         	975045.00       	1168.000000     	0.001198        	2.0000          	
6800.0002       	6461.8000       	73.5733         	975036.00       	1278.000000     	0.001311        	2.0000          	
6800.0005       	6462.1000       	73.5643         	975076.00       	1209.000000     	0.001240        	2.0000          	
6799.9998       	6462.4000       	73.5553         	974953.00       	1215.000000     	0.001246        	2.0000          	
6800.0006       	6462.7000       	73.5463         	974815.00       	1293.000000     	0.001326        	2.0000          	
6799.9997       	6463.0000       	73.5373         	974743.00       	1359.000000     	0.001394        	2.0000          	
6799.9996       	6463.3000       	73.5283         	974741.00       	1288.000000     	0.001321        	2.0000          	
6800.0002       	6463.6000       	73.5193         	974662.00       	1349.000000     	0.001384        	2.0000          	
6800.0003       	6463.9000       	73.5103         	974593.00       	1455.000000     	0.001493        	2.0000          	
6799.9997       	6464.2000       	73.5013         	974498.00       	1483.000000     	0.001522        	2.0000          	
6799.9999       	6464.5000       	73.4923         	974349.00       	1660.000000     	0.001704        	2.0000          	
6800.0010       	6464.8000       	73.4834         	974286.00       	1697.000000     	0.001742        	2.0000          	
6799.9996       	6465.1000       	73.4744         	974240.00       	1662.000000     	0.001706        	2.0000          	
6799.9999       	6465.4000       	73.4654         	974173.00       	1818.000000     	0.001866        	2.0000          	
6799.9998       	6465.7000       	73.4565         	973944.00       	1922.000000     	0.001973        	2.0000          	
6800.0003       	6466.0000       	73.4475         	973892.00       	1934.000000     	0.001986        	2.0000          	
6799.9998       	6466.3000       	73.4386         	973889.00       	2039.000000     	0.002094        	2.0000          	
6800.0008       	6466.6000       	73.4297         	973770.00       	2070.000000     	0.002126        	2.0000          	
6800.0007       	6466.9000       	73.4207         	973656.00       	2167.000000     	0.002226        	2.0000          	
6800.0007       	6467.2000       	73.4118         	973654.00       	2215.000000     	0.002275        	2.0000          	
6800.0004       	6467.5000       	73.4029         	973492.00       	2456.000000     	0.002523        	2.0000          	
6800.0006       	6467.8000       	73.3940         	973435.00       	2475.000000     	0.002543        	2.0000          	
6799.9998       	6468.1000       	73.3851         	973285.00       	2575.000000     	0.002646        	2.0000          	
6800.0000       	6468.4000       	73.3762         	973236.00       	2776.000000     	0.002852        	2.0000          	
6800.0006       	6468.7000       	73.3673         	973111.00       	2983.000000     	0.003065        	2.0000          	
6800.0000       	6469.0000       	73.3584         	973087.00       	3130.000000     	0.003217        	2.0000          	
6799.9996       	6469.3000       	73.3495         	973062.00       	3304.000000     	0.003395        	2.0000          	
6800.0002       	6469.6000       	73.3406         	972913.00       	3477.000000     	0.003574        	2.0000          	
6799.9999       	6469.9000       	73.3317         	972879.00       	3716.000000     	0.003820        	2.0000          	
6800.0000       	6470.2000       	73.3229         	972862.00       	3715.000000     	0.003819        	2.0000          	
6800.0000       	6470.5000       	73.3140         	972677.00       	4053.000000     	0.004167        	2.0000          	
6800.0004       	6470.8000       	73.3051         	972613.00       	4292.000000     	0.004413        	2.0000          	
6800.0000       	6471.1000       	73.2963         	972661.00       	4517.000000     	0.004644        	2.0000          	
6800.0000       	6471.4000       	73.2874         	972404.00       	4785.000000     	0.004921        	2.0000          	
6800.0003       	6471.7000       	73.2786         	986518.00       	5272.000000     	0.005344        	2.0000          	
6800.0004       	6472.0000       	73.2698         	986403.00       	5421.000000     	0.005496        	2.0000          	
6799.9995       	6472.3000       	73.2609         	986370.00       	5507.000000     	0.005583        	2.0000          	
6800.0002       	6472.6000       	73.2521         	986360.00       	5784.000000     	0.005864        	2.0000          	
6799.9998       	6472.9000       	73.2433         	986181.00       	6201.000000     	0.006288        	2.0000          	
6800.0000       	6473.2000       	73.2345         	986008.00       	6449.000000     	0.006541        	2.0000          	
6800.0002       	6473.5000       	73.2256         	986011.00       	6519.000000     	0.006611        	2.0000          	
6800.0005       	6473.8000       	73.2168         	985828.00       	6792.000000     	0.006890        	2.0000          	
6799.9999       	6474.1000       	73.2080         	985841.00       	6800.000000     	0.006898        	2.0000          	
6799.9999       	6474.4000       	73.1992         	985740.00       	7042.000000     	0.007144        	2.0000          	
6799.9998       	6474.7000       	73.1905         	985629.00       	7121.000000     	0.007225        	2.0000          	
6799.9997       	6475.0000       	73.1817         	985548.00       	7097.000000     	0.007201        	2.0000          	
6799.9997       	6475.3000       	73.1729         	985444.00       	7017.000000     	0.007121        	2.0000          	
6800.0004       	6475.6000       	73.1641         	985333.00       	7103.000000     	0.007209        	2.0000          	
6799.9999       	6475.9000       	73.1553         	985183.00       	7152.000000     	0.007260        	2.0000          	
6799.9997       	6476.2000       	73.1466         	985120.00       	7023.000000     	0.007129        	2.0000          	
6800.0002       	6476.5000       	73.1378         	985057.00       	7075.000000     	0.007182        	2.0000          	
6800.0011       	6476.8000       	73.1291         	985020.00       	6944.000000     	0.007050        	2.0000          	
6800.0002       	6477.1000       	73.1203         	984882.00       	6948.000000     	0.007055        	2.0000          	
6799.9997       	6477.4000       	73.1116         	984873.00       	7115.000000     	0.007224        	2.0000          	
6799.9999       	6477.7000       	73.1028         	984783.00       	6814.000000     	0.006919        	2.0000          	
6799.9998       	6478.0000       	73.0941         	984666.00       	6783.000000     	0.006889        	2.0000          	
6800.0004       	6478.3000       	73.0854         	984578.00       	6686.000000     	0.006791        	2.0000          	
6800.0011       	6478.6000       	73.0767         	984461.00       	6717.000000     	0.006823        	2.0000          	
6800.0004       	6478.9000       	73.0679         	984549.00       	6482.000000     	0.006584        	2.0000          	
6799.9998       	6479.2000       	73.0592         	984574.00       	6604.000000     	0.006707        	2.0000          	
6800.0004       	6479.5000       	73.0505         	984494.00       	6650.000000     	0.006755        	2.0000          	
6799.9999       	6479.8000       	73.0418         	984356.00       	6656.000000     	0.006762        	2.0000          	
6799.9999       	6480.1000       	73.0331         	984218.00       	6640.000000     	0.006746        	2.0000          	
6800.0008       	6480.4000       	73.0244         	984271.00       	6712.000000     	0.006819        	2.0000          	
6800.0005       	6480.7000       	73.0157         	984220.00       	6594.000000     	0.006700        	2.0000          	
6799.9999       	6481.0000       	73.0071         	984147.00       	6667.000000     	0.006774        	2.0000          	
6799.9995       	6481.3000       	72.9984         	984063.00       	6872.000000     	0.006983        	2.0000          	
6799.9996       	6481.6000       	72.9897         	984000.00       	6913.000000     	0.007025        	2.0000          	
6799.9996       	6481.9000       	72.9810         	983919.00       	7077.000000     	0.007193        	2.0000          	
6800.0006       	6482.2000       	72.9724         	983791.00       	7081.000000     	0.007198        	2.0000          	
6800.0003       	6482.5000       	72.9637         	983659.00       	7236.000000     	0.007356        	2.0000          	
6800.0000       	6482.8000       	72.9551         	983640.00       	7441.000000     	0.007565        	2.0000          	
6799.9999       	6483.1000       	72.9464         	983540.00       	7769.000000     	0.007899        	2.0000          	
6800.0006       	6483.4000       	72.9378         	983499.00       	8265.000000     	0.008404        	2.0000          	
6800.0000       	6483.7000       	72.9292         	983429.00       	8475.000000     	0.008618        	2.0000          	
6800.0004       	6484.0000       	72.9205         	983492.00       	8598.000000     	0.008742        	2.0000          	
6800.0000       	6484.3000       	72.9119         	983333.00       	9316.000000     	0.009474        	2.0000          	
6799.9998       	6484.6000       	72.9033         	983179.00       	9668.000000     	0.009833        	2.0000          	
6800.0004       	6484.9000       	72.8947         	983088.00       	10173.000000    	0.010348        	2.0000          	
6800.0009       	6485.2000       	72.8861         	982942.00       	10827.000000    	0.011015        	2.0000          	
6799.9995       	6485.5000       	72.8775         	982925.00       	11607.000000    	0.011809        	2.0000          	
6800.0004       	6485.8000       	72.8689         	982811.00       	12549.000000    	0.012768        	2.0000          	
6799.9991       	6486.1000       	72.8603         	982752.00       	13552.000000    	0.013790        	2.0000          	
6799.9999       	6486.4000       	72.8517         	982715.00       	14735.000000    	0.014994        	2.0000          	
6800.0005       	6486.7000       	72.8431         	982683.00       	15981.000000    	0.016263        	2.0000          	
6800.0007       	6487.0000       	72.8345         	982567.00       	17250.000000    	0.017556        	2.0000          	
6799.9997       	6487.3000       	72.8259         	982483.00       	19010.000000    	0.019349        	2.0000          	
6799.9997       	6487.6000       	72.8174         	982473.00       	20771.000000    	0.021142        	2.0000          	
6800.0012       	6487.9000       	72.8088         	982426.00       	23083.000000    	0.023496        	2.0000          	
6800.0003       	6488.2000       	72.8002         	982127.00       	25084.000000    	0.025540        	2.0000          	
6800.0000       	6488.5000       	72.7917         	982166.00       	28005.000000    	0.028514        	2.0000          	
6800.0000       	6488.8000       	72.7831         	982120.00       	31036.000000    	0.031601        	2.0000          	
6799.9997       	6489.1000       	72.7746         	982017.00       	33904.000000    	0.034525        	2.0000          	
6800.0003       	6489.4000       	72.7660         	981852.00       	37278.000000    	0.037967        	2.0000          	
6799.9998       	6489.7000       	72.7575         	981790.00       	40490.000000    	0.041241        	2.0000          	
6800.0003       	6490.0000       	72.7490         	981712.00       	43382.000000    	0.044190        	2.0000          	
6799.9999       	6490.3000       	72.7404         	981628.00       	44889.000000    	0.045729        	2.0000          	
6799.9992       	6490.6000       	72.7319         	981500.00       	45414.000000    	0.046270        	2.0000          	
6800.0003       	6490.9000       	72.7234         	981476.00       	43576.000000    	0.044398        	2.0000          	
6799.9999       	6491.2000       	72.7149         	981250.00       	40298.000000    	0.041068        	2.0000          	
6799.9991       	6491.5000       	72.7064         	981225.00       	35871.000000    	0.036557        	2.0000          	
6800.0011       	6491.8000       	72.6979         	981067.00       	30750.000000    	0.031343        	2.0000          	
6799.9996       	6492.1000       	72.6894         	981049.00       	25819.000000    	0.026318        	2.0000          	
6800.0005       	6492.4000       	72.6809         	980973.00       	21600.000000    	0.022019        	2.0000          	
6799.9987       	6492.7000       	72.6724         	980908.00       	18007.000000    	0.018357        	2.0000          	
6800.0005       	6493.0000       	72.6639         	980838.00       	14863.000000    	0.015153        	2.0000          	
6800.0004       	6493.3000       	72.6554         	980732.00       	12587.000000    	0.012834        	2.0000          	
6799.9999       	6493.6000       	72.6470         	980706.00       	10307.000000    	0.010510        	2.0000          	
6799.9999       	6493.9000       	72.6385         	980611.00       	8843.000000     	0.009018        	2.0000          	
6799.9997       	6494.2000       	72.6300         	980575.00       	7461.000000     	0.007609        	2.0000          	
6800.0012       	6494.5000       	72.6216         	980486.00       	6259.000000     	0.006384        	2.0000          	
6800.0010       	6494.8000       	72.6131         	980361.00       	5665.000000     	0.005778        	2.0000          	
6800.0002       	6495.1000       	72.6047         	980270.00       	5042.000000     	0.005143        	2.0000          	
6799.9996       	6495.4000       	72.5962         	980165.00       	4511.000000     	0.004602        	2.0000          	
6799.9991       	6495.7000       	72.5878         	980060.00       	4178.000000     	0.004263        	2.0000          	
6800.0002       	6496.0000       	72.5793         	979963.00       	3693.000000     	0.003769        	2.0000          	
6799.9998       	6496.3000       	72.5709         	979885.00       	3457.000000     	0.003528        	2.0000          	
6800.0003       	6496.6000       	72.5625         	979717.00       	3087.000000     	0.003151        	2.0000          	
6799.9995       	6496.9000       	72.5541         	979664.00       	2904.000000     	0.002964        	2.0000          	
6800.0003       	6497.2000       	72.5457         	979508.00       	2656.000000     	0.002712        	2.0000          	
6799.9998       	6497.5000       	72.5372         	979468.00       	2528.000000     	0.002581        	2.0000          	
6800.0000       	6497.8000       	72.5288         	979193.00       	2373.000000     	0.002423        	2.0000          	
6799.9999       	6498.1000       	72.5204         	979198.00       	2210.000000     	0.002257        	2.0000          	
6800.0008       	6498.4000       	72.5120         	979240.00       	2056.000000     	0.002100        	2.0000          	
6799.9996       	6498.7000       	72.5036         	979125.00       	1919.000000     	0.001960        	2.0000          	
6800.0006       	6499.0000       	72.4953         	978984.00       	1911.000000     	0.001952        	2.0000          	
6800.0002       	6499.3000       	72.4869         	978894.00       	1758.000000     	0.001796        	2.0000          	
6799.9996       	6499.6000       	72.4785         	978835.00       	1747.000000     	0.001785        	2.0000          	
6799.9994       	6499.9000       	72.4701         	978818.00       	1655.000000     	0.001691        	2.0000          	
# Instrument: I20-XAS Date: Wed, 10 Oct 2018 21:36:16 BST
# Final ring current: 299.32476
